Time (s),Pressure 1 (kPa),Pressure 2 (kPa),Switch State
0.083,,,
0.103,-7.49,99.43,1
0.123,-7.49,99.43,1
0.143,-7.49,99.43,1
0.163,-7.49,99.55,1
0.183,-7.49,99.43,1
0.203,-7.49,99.43,1
0.223,-7.49,99.43,1
0.243,-7.49,99.43,1
0.263,-7.49,99.43,1
0.283,-7.49,99.43,1
0.303,-7.49,99.43,1
0.323,-7.49,99.43,1
0.343,-7.49,99.43,1
0.363,-7.49,99.55,1
0.383,-7.49,99.43,1
0.403,-7.49,99.43,1
0.423,-7.49,99.43,1
0.443,-7.49,99.43,1
0.463,-7.49,99.43,1
0.483,-7.49,99.43,1
0.503,-7.49,99.43,1
0.523,-7.49,99.43,1
0.543,-7.49,99.43,1
0.563,-7.49,99.43,1
0.583,-7.61,99.43,1
0.603,-7.49,99.43,1
0.623,-7.49,99.43,1
0.643,-7.49,99.43,1
0.663,-7.49,99.43,1
0.683,-7.49,99.43,1
0.703,-7.49,99.43,1
0.723,-7.49,99.43,1
0.743,-7.49,99.43,1
0.763,-7.49,99.43,1
0.783,-7.49,99.43,1
0.803,-7.49,99.43,1
0.823,-7.61,99.43,1
0.843,-7.49,99.43,1
0.863,-7.49,99.43,1
0.884,-7.49,99.43,1
0.904,-7.49,99.43,1
0.924,-7.49,99.43,1
0.944,-7.49,99.55,1
0.964,-7.49,99.43,1
0.984,-7.49,99.55,1
1.004,-7.49,99.43,1
1.024,-7.49,99.43,1
1.044,-7.49,99.43,1
1.064,-7.49,99.43,1
1.084,-7.49,99.43,1
1.104,-7.49,99.43,1
1.124,-7.49,99.43,1
1.144,-7.49,99.43,1
1.164,-7.49,99.43,1
1.184,-7.49,99.43,1
1.204,-7.49,99.43,1
1.224,-7.49,99.55,1
1.244,-7.49,99.55,1
1.264,-7.49,99.43,1
1.284,-7.61,99.43,1
1.284,-7.49,99.43,1
1.304,-7.49,99.43,1
1.324,-7.49,99.43,1
1.344,-7.49,99.43,1
1.364,-7.49,99.43,1
1.384,-7.49,99.43,1
1.404,-7.49,99.43,1
1.424,-7.49,99.43,1
1.444,-7.49,99.43,1
1.464,-7.49,99.43,1
1.484,-7.49,99.43,1
1.504,-7.49,99.43,1
1.524,-7.49,99.43,1
1.544,-7.49,99.43,1
1.564,-7.49,99.43,1
1.584,-7.49,99.55,1
1.604,-7.49,99.43,1
1.624,-7.49,99.43,1
1.644,-7.49,99.43,1
1.664,-7.49,99.43,1
1.684,-7.49,99.43,1
1.685,-7.49,99.43,1
1.705,-7.49,99.43,1
1.725,-7.49,99.43,1
1.745,-7.49,99.43,1
1.765,-7.49,99.43,1
1.785,-7.49,99.43,1
1.805,-7.49,99.43,1
1.825,-7.49,99.43,1
1.845,-7.49,99.43,1
1.865,-7.49,99.43,1
1.885,-7.49,99.43,1
1.905,-7.49,99.43,1
1.925,-7.49,99.43,1
1.945,-7.49,99.43,1
1.965,-7.49,99.43,1
1.985,-7.49,99.55,1
2.005,-7.49,99.43,1
2.025,-7.49,99.43,1
2.045,-7.49,99.43,1
2.065,-7.49,99.43,1
2.085,-7.49,99.43,1
2.105,-7.49,99.43,1
2.125,-7.49,99.43,1
2.145,-7.49,99.43,1
2.165,-7.49,99.55,1
2.185,-7.49,99.43,1
2.205,-7.49,99.43,1
2.225,-7.49,99.43,1
2.245,-7.49,99.43,1
2.265,-7.61,99.43,1
2.285,-7.49,99.43,1
2.305,-7.49,99.43,1
2.325,-7.49,99.43,1
2.345,-7.49,99.43,1
2.365,-7.49,99.43,1
2.385,-7.61,99.43,1
2.405,-7.49,99.43,1
2.425,-7.49,99.43,1
2.445,-7.49,99.43,1
2.465,-7.49,99.43,1
2.485,-7.49,99.43,1
2.486,-7.49,99.43,1
2.506,-7.49,99.43,1
2.526,-7.49,99.43,1
2.546,-7.49,99.43,1
2.566,-7.49,99.43,1
2.586,-7.49,99.43,1
2.606,-7.49,99.43,1
2.626,-7.61,99.43,1
2.646,-7.49,99.43,1
2.666,-7.49,99.43,1
2.686,-7.49,99.43,1
2.706,-7.49,99.43,1
2.726,-7.49,99.55,1
2.746,-7.49,99.43,1
2.766,-7.49,99.55,1
2.786,-7.49,99.43,1
2.806,-7.49,99.43,1
2.826,-7.49,99.43,1
2.846,-7.49,99.43,1
2.866,-7.49,99.43,1
2.886,-7.49,99.43,1
2.887,-7.49,99.43,1
2.907,-7.49,99.43,1
2.927,-7.49,99.43,1
2.947,-7.49,99.43,1
2.967,-7.49,99.43,1
2.987,-7.49,99.43,1
3.007,-7.49,99.43,1
3.027,-7.49,99.43,1
3.047,-7.49,99.43,1
3.067,-7.49,99.43,1
3.087,-7.61,99.43,1
3.107,-7.49,99.43,1
3.127,-7.49,99.43,1
3.147,-7.49,99.43,1
3.167,-7.49,99.55,1
3.187,-7.49,99.43,1
3.207,-7.49,99.55,1
3.227,-7.49,99.43,1
3.247,-7.49,99.43,1
3.267,-7.49,99.43,1
3.287,-7.37,99.43,1
3.307,-7.0,99.43,1
3.327,-6.76,99.43,1
3.347,-6.88,99.43,1
3.367,-7.0,99.43,1
3.387,-7.12,99.43,1
3.407,-7.12,99.43,1
3.427,-7.25,99.43,1
3.447,-7.25,99.43,1
3.467,-7.37,99.43,1
3.487,-7.37,99.43,1
3.507,-7.37,99.43,1
3.527,-7.37,99.43,1
3.547,-7.49,99.43,1
3.567,-7.49,99.43,1
3.587,-7.49,99.55,1
3.607,-7.49,99.43,1
3.627,-7.49,99.43,1
3.647,-7.49,99.43,1
3.667,-7.49,99.55,1
3.687,-7.49,99.43,1
3.707,-7.49,99.43,1
3.727,-7.49,99.43,1
3.747,-7.49,99.43,1
3.767,-7.49,99.43,1
3.787,-7.49,99.43,1
3.807,-7.49,99.43,1
3.827,-7.49,99.43,1
3.847,-7.49,99.55,1
3.867,-7.49,99.43,1
3.887,-7.49,99.43,1
3.907,-7.49,99.43,1
3.927,-7.49,99.43,1
3.947,-7.49,99.43,1
3.967,-7.49,99.43,1
3.987,-7.49,99.43,1
4.007,-7.49,99.43,1
4.027,-7.49,99.43,1
4.047,-7.49,99.43,1
4.067,-7.49,99.43,1
4.087,-7.49,99.43,1
4.088,-7.49,99.43,1
4.108,-7.49,99.43,1
4.128,-7.49,99.43,1
4.148,-7.49,99.43,1
4.168,-7.49,99.43,1
4.188,-7.49,99.43,1
4.208,-7.49,99.43,1
4.228,-7.49,99.43,1
4.248,-7.49,99.43,1
4.268,-7.49,99.43,1
4.288,-7.49,99.43,1
4.308,-7.49,99.43,1
4.328,-7.49,99.43,1
4.348,-7.49,99.43,1
4.368,-7.49,99.43,1
4.388,-7.49,99.43,1
4.408,-7.49,99.43,1
4.428,-7.49,99.43,1
4.448,-7.49,99.43,1
4.468,-7.49,99.43,1
4.488,-7.49,99.43,1
4.508,-7.49,99.43,1
4.528,-7.49,99.43,1
4.548,-6.51,99.43,1
4.568,-5.17,99.43,1
4.588,-4.31,99.43,1
4.608,-3.58,99.43,1
4.628,-2.85,99.43,1
4.648,-2.48,99.43,1
4.668,-1.99,99.43,1
4.688,-1.5,99.43,1
4.708,-1.14,99.43,1
4.728,-0.89,99.43,1
4.748,-0.77,99.43,0
4.768,-0.53,99.43,0
4.788,-0.4,99.43,0
4.808,-0.28,99.43,0
4.828,-0.16,99.43,0
4.848,-0.16,99.43,0
4.868,-0.16,99.43,0
4.888,-0.04,99.43,0
4.889,0.33,99.43,0
4.909,0.33,99.43,0
4.929,0.33,99.43,0
4.949,0.33,99.43,0
4.969,0.33,99.43,0
4.989,0.33,99.43,0
5.009,0.33,99.43,0
5.029,0.33,99.43,0
5.049,0.45,99.43,0
5.069,0.33,99.43,0
5.089,0.33,99.43,0
5.109,0.33,99.43,0
5.129,0.33,99.43,0
5.149,0.45,99.43,0
5.169,0.09,99.43,0
5.189,-2.11,99.43,0
5.209,-4.07,99.43,0
5.229,-5.9,99.43,0
5.249,-8.35,99.43,0
5.269,-9.57,99.43,0
5.289,-10.3,99.43,0
5.309,-10.67,99.43,0
5.329,-10.91,99.43,0
5.349,-11.03,99.43,0
5.369,-11.16,99.43,0
5.389,-11.16,99.43,0
5.409,-11.28,99.43,0
5.429,-11.28,99.43,0
5.449,-11.28,99.43,0
5.469,-11.4,99.43,0
5.489,-11.4,99.43,0
5.509,-11.4,99.43,0
5.529,-11.4,99.43,0
5.549,-11.4,99.55,0
5.569,-11.4,99.43,0
5.589,-11.4,99.43,0
5.609,-11.4,99.43,0
5.629,-11.4,99.43,1
5.649,-11.4,99.43,1
5.669,-11.52,99.43,1
5.69,-11.52,99.43,1
5.71,-11.52,99.43,1
5.73,-11.52,99.43,1
5.75,-11.52,99.43,1
5.77,-11.52,99.43,1
5.79,-11.52,99.43,1
5.81,-11.4,99.43,1
5.83,-11.03,99.43,1
5.85,-10.54,99.43,1
5.87,-9.69,99.43,1
5.89,-7.98,99.43,1
5.91,-6.39,99.43,1
5.93,-5.29,99.43,1
5.95,-4.31,99.43,1
5.97,-3.58,99.43,1
5.99,-2.85,99.43,1
6.01,-2.36,99.43,1
6.03,-1.99,99.43,1
6.05,-1.63,99.43,1
6.07,-1.26,99.43,1
6.09,-1.01,99.43,0
6.091,-0.77,99.55,0
6.111,-0.77,99.43,0
6.131,-0.53,99.43,0
6.151,-0.4,99.55,0
6.171,-0.4,99.43,0
6.191,-0.04,99.43,0
6.211,-0.04,99.43,0
6.231,-0.04,99.55,0
6.251,0.21,99.43,0
6.271,0.21,99.43,0
6.291,0.33,99.55,0
6.311,0.33,99.43,0
6.331,0.33,99.55,0
6.351,0.45,99.43,0
6.371,0.45,99.43,0
6.391,0.45,99.55,0
6.411,0.45,99.43,0
6.431,0.57,99.43,0
6.451,0.33,99.43,0
6.471,-1.5,99.43,0
6.492,-3.58,99.43,0
6.512,-5.17,99.43,0
6.532,-7.37,99.43,0
6.552,-9.2,99.43,0
6.572,-10.06,99.43,0
6.592,-10.54,99.43,0
6.612,-10.91,99.43,0
6.632,-11.03,99.43,0
6.652,-11.16,99.43,0
6.672,-11.16,99.43,0
6.692,-11.16,99.55,0
6.712,-11.28,99.43,0
6.732,-11.4,99.43,0
6.752,-11.4,99.55,0
6.772,-11.4,99.43,0
6.792,-11.4,99.43,0
6.812,-11.4,99.43,0
6.832,-11.4,99.43,0
6.852,-11.4,99.43,0
6.872,-11.4,99.43,1
6.892,-11.52,99.43,1
6.892,-11.4,99.43,1
6.912,-11.4,99.43,1
6.932,-11.4,99.43,1
6.952,-11.4,99.43,1
6.972,-11.52,99.43,1
6.992,-11.52,99.43,1
7.012,-11.52,99.43,1
7.032,-11.52,99.43,1
7.052,-11.52,99.43,1
7.072,-11.4,99.43,1
7.092,-11.16,99.43,1
7.112,-10.54,99.43,1
7.132,-9.81,99.43,1
7.152,-8.35,99.43,1
7.172,-6.63,99.55,1
7.192,-5.41,99.43,1
7.212,-4.44,99.43,1
7.232,-3.82,99.43,1
7.252,-3.46,99.43,1
7.272,-2.72,99.43,1
7.292,-2.11,99.43,1
7.293,-1.75,99.43,1
7.313,-1.75,99.43,1
7.333,-1.5,99.43,0
7.353,-1.01,99.43,0
7.373,-0.65,99.43,0
7.393,-0.53,99.43,0
7.413,-0.77,99.43,0
7.433,-0.77,99.43,0
7.453,-0.28,99.43,0
7.473,0.09,99.43,0
7.493,0.09,99.43,0
7.513,-0.16,99.43,0
7.533,-0.28,99.43,0
7.553,0.09,99.43,0
7.573,0.21,99.43,0
7.593,0.21,99.43,0
7.613,0.09,99.43,0
7.633,-0.16,99.43,0
7.653,0.09,99.43,0
7.673,0.33,99.43,0
7.693,0.33,99.43,0
7.713,0.33,99.43,0
7.733,-1.26,99.43,0
7.753,-3.46,99.43,0
7.773,-5.05,99.43,0
7.793,-7.12,99.43,0
7.813,-9.08,99.43,0
7.833,-9.81,99.43,0
7.853,-10.54,99.43,0
7.873,-10.79,99.43,0
7.893,-11.03,99.43,0
7.913,-11.03,99.43,0
7.933,-11.16,99.43,0
7.953,-11.28,99.43,0
7.973,-11.28,99.43,0
7.993,-11.28,99.43,0
8.013,-11.28,99.43,0
8.033,-11.28,99.43,0
8.053,-11.4,99.43,0
8.073,-11.4,99.43,0
8.094,-11.28,99.43,0
8.114,-11.4,99.43,0
8.134,-11.4,99.43,1
8.154,-11.4,99.43,1
8.174,-11.4,99.43,1
8.194,-11.4,99.43,1
8.214,-11.4,99.43,1
8.234,-11.4,99.43,1
8.254,-11.4,99.43,1
8.274,-11.4,99.43,1
8.294,-11.4,99.55,1
8.314,-11.4,99.43,1
8.334,-11.52,99.43,1
8.354,-11.52,99.55,1
8.374,-11.16,99.43,1
8.394,-10.54,99.43,1
8.414,-9.81,99.43,1
8.434,-8.35,99.43,1
8.454,-6.88,99.43,1
8.474,-5.29,99.43,1
8.494,-4.31,99.43,1
8.514,-3.82,99.43,1
8.534,-3.34,99.43,1
8.554,-2.97,99.43,1
8.574,-1.99,99.43,1
8.594,-1.63,99.43,1
8.614,-1.5,99.43,1
8.634,-1.5,99.43,0
8.654,-1.38,99.43,0
8.674,-0.77,99.43,0
8.694,-0.53,99.43,0
8.714,-0.65,99.43,0
8.734,-0.77,99.55,0
8.754,-0.77,99.55,0
8.774,0.09,99.43,0
8.794,-0.04,99.43,0
8.814,-0.16,99.43,0
8.834,-0.4,99.43,0
8.854,-0.53,99.43,0
8.874,0.09,99.43,0
8.894,-0.04,99.43,0
8.895,0.09,99.43,0
8.915,-0.16,99.43,0
8.935,-0.04,99.43,0
8.955,0.21,99.43,0
8.975,0.21,99.43,0
8.995,0.21,99.43,0
9.015,-1.5,99.43,0
9.035,-3.58,99.43,0
9.055,-5.17,99.43,0
9.075,-7.37,99.43,0
9.095,-9.2,99.55,0
9.115,-9.81,99.43,0
9.135,-10.54,99.43,0
9.155,-10.79,99.43,0
9.175,-11.03,99.43,0
9.195,-11.03,99.43,0
9.215,-11.16,99.55,0
9.235,-11.28,99.43,0
9.255,-11.28,99.43,0
9.275,-11.28,99.43,0
9.295,-11.28,99.43,0
9.295,-11.4,99.43,0
9.315,-11.4,99.43,0
9.335,-11.4,99.43,0
9.355,-11.4,99.43,0
9.375,-11.4,99.43,0
9.395,-11.4,99.43,1
9.415,-11.4,99.43,1
9.435,-11.4,99.43,1
9.455,-11.4,99.43,1
9.475,-11.4,99.43,1
9.495,-11.4,99.43,1
9.515,-11.4,99.43,1
9.535,-11.4,99.43,1
9.555,-11.4,99.43,1
9.575,-11.4,99.43,1
9.595,-11.52,99.43,1
9.615,-11.4,99.43,1
9.635,-11.03,99.43,1
9.655,-10.54,99.43,1
9.675,-9.69,99.43,1
9.696,-7.98,99.43,1
9.716,-6.51,99.43,1
9.736,-4.92,99.43,1
9.756,-4.19,99.43,1
9.776,-3.58,99.43,1
9.796,-3.34,99.55,1
9.816,-2.85,99.43,1
9.836,-1.99,99.43,1
9.856,-1.63,99.43,1
9.876,-1.38,99.43,0
9.896,-1.38,99.43,0
9.916,-1.14,99.43,0
9.936,-0.65,99.43,0
9.956,-0.53,99.43,0
9.976,-0.65,99.43,0
9.996,-0.89,99.43,0
10.016,-0.16,99.43,0
10.036,-0.16,99.43,0
10.056,-0.16,99.43,0
10.076,-0.28,99.43,0
10.096,-0.53,99.43,0
10.096,0.09,99.43,0
10.116,-0.04,99.43,0
10.136,-0.04,99.43,0
10.156,-0.16,99.43,0
10.176,-0.16,99.43,0
10.196,0.33,99.43,0
10.216,0.21,99.43,0
10.236,-1.38,99.43,0
10.256,-3.58,99.43,0
10.276,-5.29,99.43,0
10.296,-7.49,99.43,0
10.316,-9.2,99.43,0
10.336,-10.18,99.43,0
10.356,-10.67,99.55,0
10.376,-10.91,99.43,0
10.396,-11.03,99.43,0
10.416,-11.03,99.43,0
10.436,-11.16,99.43,0
10.456,-11.28,99.43,0
10.476,-11.28,99.43,0
10.496,-11.28,99.43,0
10.497,-11.4,99.43,0
10.517,-11.4,99.43,0
10.537,-11.4,99.43,0
10.557,-11.4,99.43,0
10.577,-11.4,99.43,0
10.597,-11.4,99.43,1
10.617,-11.4,99.43,1
10.637,-11.4,99.43,1
10.657,-11.4,99.43,1
10.677,-11.4,99.43,1
10.697,-11.4,99.43,1
10.717,-11.4,99.43,1
10.737,-11.4,99.43,1
10.757,-11.4,99.43,1
10.777,-11.52,99.55,1
10.797,-11.52,99.43,1
10.817,-11.4,99.43,1
10.837,-10.91,99.43,1
10.857,-10.3,99.43,1
10.877,-9.32,99.43,1
10.897,-7.49,99.43,1
10.898,-6.27,99.55,1
10.918,-4.8,99.43,1
10.938,-3.95,99.43,1
10.958,-3.46,99.43,1
10.978,-2.97,99.43,1
10.998,-2.85,99.43,1
11.018,-1.87,99.43,1
11.038,-1.5,99.43,1
11.058,-1.38,99.43,0
11.078,-1.38,99.43,0
11.098,-1.26,99.43,0
11.118,-0.65,99.43,0
11.138,-0.65,99.43,0
11.158,-0.65,99.43,0
11.178,-0.77,99.55,0
11.198,-0.4,99.43,0
11.218,-0.04,99.43,0
11.238,-0.04,99.55,0
11.258,-0.16,99.55,0
11.278,-0.53,99.43,0
11.298,-0.04,99.43,0
11.298,-0.04,99.43,0
11.318,-0.04,99.43,0
11.338,-0.16,99.55,0
11.358,-0.28,99.43,0
11.378,0.21,99.43,0
11.398,-0.16,99.43,0
11.418,-2.36,99.43,0
11.438,-4.31,99.43,0
11.458,-6.02,99.43,0
11.478,-8.35,99.43,0
11.498,-9.69,99.43,0
11.518,-10.42,99.43,0
11.538,-10.79,99.43,0
11.558,-10.91,99.43,0
11.578,-11.03,99.55,0
11.598,-11.16,99.43,0
11.618,-11.28,99.43,0
11.638,-11.28,99.43,0
11.658,-11.28,99.43,0
11.678,-11.28,99.43,0
11.698,-11.4,99.43,0
11.699,-11.4,99.43,0
11.719,-11.4,99.55,0
11.739,-11.28,99.43,0
11.759,-11.4,99.43,0
11.779,-11.4,99.43,1
11.799,-11.4,99.43,1
11.819,-11.4,99.43,1
11.839,-11.4,99.55,1
11.859,-11.4,99.43,1
11.879,-11.4,99.43,1
11.899,-11.4,99.43,1
11.919,-11.4,99.43,1
11.939,-11.52,99.43,1
11.959,-11.4,99.43,1
11.979,-11.52,99.43,1
11.999,-11.28,99.43,1
12.019,-10.67,99.43,1
12.039,-9.93,99.43,1
12.059,-8.35,99.43,1
12.079,-6.63,99.55,1
12.099,-5.78,99.43,1
12.1,-4.44,99.43,1
12.12,-3.7,99.55,1
12.14,-3.21,99.43,1
12.16,-2.85,99.43,1
12.18,-2.6,99.43,1
12.2,-1.63,99.43,1
12.22,-1.38,99.43,0
12.24,-1.38,99.43,0
12.26,-1.38,99.43,0
12.28,-1.38,99.43,0
12.3,-0.65,99.43,0
12.32,-0.65,99.43,0
12.34,-0.65,99.55,0
12.36,-0.89,99.43,0
12.38,-0.53,99.43,0
12.4,-0.28,99.43,0
12.42,-0.28,99.43,0
12.44,-0.28,99.43,0
12.46,-0.65,99.43,0
12.48,-0.16,99.43,0
12.5,-0.04,99.43,0
12.501,-0.16,99.43,0
12.521,-0.16,99.43,0
12.541,-0.28,99.43,0
12.561,0.33,99.43,0
12.581,-0.65,99.43,0
12.601,-2.97,99.43,0
12.621,-4.92,99.43,0
12.641,-6.88,99.43,0
12.661,-8.71,99.43,0
12.681,-10.06,99.43,0
12.701,-10.54,99.43,0
12.721,-10.79,99.43,0
12.741,-10.91,99.43,0
12.761,-11.16,99.43,0
12.781,-11.28,99.43,0
12.801,-11.28,99.43,0
12.821,-11.28,99.43,0
12.841,-11.28,99.43,0
12.861,-11.4,99.43,0
12.881,-11.4,99.43,0
12.901,-11.4,99.43,0
12.921,-11.28,99.43,0
12.941,-11.4,99.43,0
12.961,-11.4,99.43,0
12.981,-11.4,99.43,1
13.001,-11.4,99.43,1
13.021,-11.4,99.43,1
13.041,-11.4,99.43,1
13.061,-11.4,99.43,1
13.081,-11.4,99.43,1
13.101,-11.4,99.43,1
13.121,-11.4,99.43,1
13.141,-11.4,99.43,1
13.161,-11.4,99.43,1
13.181,-11.4,99.43,1
13.201,-11.03,99.43,1
13.221,-10.42,99.43,1
13.241,-9.57,99.43,1
13.261,-7.61,99.43,1
13.281,-6.02,99.43,1
13.301,-5.05,99.55,1
13.321,-4.19,99.43,1
13.341,-3.46,99.43,1
13.361,-2.97,99.55,1
13.381,-2.85,99.43,1
13.401,-2.48,99.43,1
13.421,-1.63,99.43,1
13.441,-1.38,99.43,0
13.461,-1.26,99.43,0
13.481,-1.38,99.43,0
13.501,-1.01,99.43,0
13.521,-0.77,99.43,0
13.541,-0.65,99.43,0
13.561,-0.77,99.43,0
13.581,-0.77,99.43,0
13.601,-0.28,99.43,0
13.621,-0.16,99.43,0
13.641,-0.28,99.43,0
13.661,-0.4,99.43,0
13.681,-0.65,99.43,0
13.701,-0.16,99.43,0
13.702,-0.16,99.43,0
13.722,-0.16,99.43,0
13.742,-0.16,99.55,0
13.762,-0.16,99.43,0
13.782,0.09,99.55,0
13.802,-1.63,99.43,0
13.822,-3.82,99.43,0
13.842,-5.41,99.43,0
13.862,-7.61,99.43,0
13.882,-9.32,99.43,0
13.902,-10.3,99.43,0
13.922,-10.67,99.43,0
13.942,-10.79,99.43,0
13.962,-10.91,99.43,0
13.982,-11.16,99.43,0
14.002,-11.16,99.43,0
14.022,-11.28,99.43,0
14.042,-11.16,99.43,0
14.062,-11.28,99.55,0
14.082,-11.4,99.43,0
14.102,-11.28,99.43,0
14.122,-11.28,99.43,0
14.142,-11.28,99.43,0
14.162,-11.4,99.43,0
14.182,-11.4,99.43,0
14.202,-11.4,99.43,1
14.222,-11.4,99.43,1
14.242,-11.4,99.43,1
14.262,-11.4,99.43,1
14.282,-11.4,99.43,1
14.302,-11.4,99.43,1
14.322,-11.4,99.43,1
14.342,-11.4,99.43,1
14.362,-11.52,99.43,1
14.382,-11.52,99.43,1
14.402,-11.4,99.43,1
14.422,-10.91,99.43,1
14.442,-10.18,99.43,1
14.462,-9.08,99.43,1
14.482,-7.0,99.43,1
14.502,-5.66,99.43,1
14.503,-4.8,99.43,1
14.523,-3.95,99.43,1
14.543,-3.34,99.43,1
14.563,-2.97,99.43,1
14.583,-2.72,99.43,1
14.603,-2.24,99.43,1
14.623,-1.5,99.43,1
14.643,-1.38,99.43,0
14.663,-1.26,99.55,0
14.683,-1.38,99.43,0
14.703,-0.89,99.43,0
14.723,-0.65,99.43,0
14.743,-0.77,99.43,0
14.763,-0.65,99.43,0
14.783,-0.65,99.43,0
14.803,-0.16,99.43,0
14.823,-0.04,99.43,0
14.843,-0.28,99.43,0
14.863,-0.4,99.43,0
14.883,-0.53,99.55,0
14.904,-0.04,99.43,0
14.924,0.09,99.43,0
14.944,-0.04,99.43,0
14.964,-0.04,99.43,0
14.984,0.09,99.55,0
15.004,-0.16,99.43,0
15.024,-2.24,99.43,0
15.044,-4.31,99.43,0
15.064,-5.9,99.43,0
15.084,-8.22,99.43,0
15.104,-9.69,99.43,0
15.124,-10.42,99.43,0
15.144,-10.79,99.55,0
15.164,-10.79,99.43,0
15.184,-11.03,99.43,0
15.204,-11.16,99.43,0
15.224,-11.28,99.43,0
15.244,-11.28,99.43,0
15.264,-11.28,99.55,0
15.284,-11.28,99.43,0
15.304,-11.4,99.43,0
15.324,-11.28,99.43,0
15.344,-11.28,99.43,0
15.364,-11.28,99.43,0
15.384,-11.4,99.43,0
15.404,-11.4,99.43,1
15.424,-11.4,99.43,1
15.444,-11.4,99.43,1
15.464,-11.4,99.43,1
15.484,-11.4,99.43,1
15.504,-11.4,99.43,1
15.524,-11.4,99.43,1
15.544,-11.4,99.43,1
15.564,-11.4,99.43,1
15.584,-11.4,99.43,1
15.604,-11.4,99.43,1
15.624,-11.16,99.43,1
15.644,-10.67,99.43,1
15.664,-9.93,99.55,1
15.684,-8.71,99.43,1
15.705,-6.76,99.43,1
15.725,-5.54,99.43,1
15.745,-4.56,99.55,1
15.765,-3.95,99.43,1
15.785,-3.21,99.43,1
15.805,-2.97,99.43,1
15.825,-2.72,99.43,1
15.845,-2.36,99.43,1
15.865,-1.63,99.43,1
15.885,-1.38,99.43,0
15.905,-1.26,99.43,0
15.925,-1.26,99.43,0
15.945,-0.89,99.55,0
15.965,-0.77,99.43,0
15.985,-0.89,99.43,0
16.005,-0.89,99.43,0
16.025,-0.77,99.43,0
16.045,-0.28,99.43,0
16.065,-0.28,99.43,0
16.085,-0.4,99.43,0
16.105,-0.65,99.43,0
16.125,-0.53,99.43,0
16.145,-0.16,99.55,0
16.165,-0.04,99.43,0
16.185,-0.28,99.43,0
16.205,-0.16,99.43,0
16.225,-0.04,99.43,0
16.245,-0.89,99.43,0
16.265,-3.09,99.43,0
16.285,-4.8,99.43,0
16.305,-6.76,99.43,0
16.325,-8.83,99.43,0
16.345,-9.93,99.43,0
16.365,-10.54,99.43,0
16.385,-10.79,99.43,0
16.405,-10.91,99.43,0
16.425,-11.03,99.43,0
16.445,-11.16,99.43,0
16.465,-11.28,99.43,0
16.485,-11.16,99.43,0
16.506,-11.28,99.43,0
16.526,-11.4,99.43,0
16.546,-11.4,99.43,0
16.566,-11.28,99.43,0
16.586,-11.28,99.43,0
16.606,-11.4,99.43,0
16.626,-11.4,99.43,0
16.646,-11.4,99.43,1
16.666,-11.28,99.43,1
16.686,-11.4,99.43,1
16.706,-11.4,99.43,1
16.726,-11.4,99.43,1
16.746,-11.4,99.43,1
16.766,-11.4,99.55,1
16.786,-11.4,99.43,1
16.806,-11.4,99.43,1
16.826,-11.4,99.43,1
16.846,-11.4,99.43,1
16.866,-10.91,99.43,1
16.886,-10.42,99.43,1
16.906,-9.57,99.43,1
16.926,-7.73,99.55,1
16.946,-6.02,99.43,1
16.966,-5.17,99.43,1
16.986,-4.31,99.43,1
17.006,-3.46,99.43,1
17.026,-2.97,99.43,1
17.046,-2.48,99.43,1
17.066,-2.48,99.43,1
17.086,-1.99,99.43,1
17.106,-1.38,99.43,1
17.126,-1.38,99.43,0
17.146,-1.14,99.55,0
17.166,-1.26,99.55,0
17.186,-0.77,99.43,0
17.206,-0.77,99.55,0
17.226,-0.77,99.43,0
17.246,-0.65,99.43,0
17.266,-0.65,99.43,0
17.286,-0.28,99.43,0
17.306,-0.28,99.43,0
17.307,-0.4,99.43,0
17.327,-0.53,99.43,0
17.347,-0.53,99.43,0
17.367,-0.04,99.43,0
17.387,-0.16,99.55,0
17.407,-0.28,99.55,0
17.427,-0.28,99.43,0
17.447,-0.16,99.43,0
17.467,-1.75,99.43,0
17.487,-3.82,99.43,0
17.507,-5.41,99.43,0
17.527,-7.73,99.43,0
17.547,-9.45,99.43,0
17.567,-10.18,99.43,0
17.587,-10.67,99.43,0
17.607,-10.79,99.55,0
17.627,-11.03,99.43,0
17.647,-11.16,99.43,0
17.667,-11.28,99.43,0
17.687,-11.28,99.43,0
17.707,-11.28,99.43,0
17.707,-11.28,99.43,0
17.727,-11.4,99.43,0
17.747,-11.4,99.43,0
17.767,-11.28,99.43,0
17.787,-11.28,99.43,0
17.807,-11.4,99.43,0
17.827,-11.4,99.55,1
17.847,-11.4,99.43,1
17.867,-11.28,99.55,1
17.887,-11.4,99.43,1
17.907,-11.4,99.43,1
17.927,-11.4,99.43,1
17.947,-11.4,99.43,1
17.967,-11.4,99.43,1
17.987,-11.4,99.43,1
18.007,-11.52,99.43,1
18.027,-11.4,99.43,1
18.047,-11.28,99.43,1
18.067,-10.79,99.43,1
18.087,-10.18,99.43,1
18.107,-8.96,99.43,1
18.108,-7.0,99.43,1
18.128,-5.66,99.43,1
18.148,-4.8,99.43,1
18.168,-4.07,99.43,1
18.188,-3.21,99.43,1
18.208,-2.97,99.43,1
18.228,-2.6,99.55,1
18.248,-2.24,99.43,1
18.268,-1.75,99.43,1
18.288,-1.26,99.43,1
18.308,-1.26,99.55,0
18.328,-1.14,99.43,0
18.348,-1.14,99.43,0
18.368,-0.65,99.43,0
18.388,-0.77,99.43,0
18.408,-0.77,99.43,0
18.428,-0.65,99.43,0
18.448,-0.65,99.43,0
18.468,-0.04,99.43,0
18.488,-0.28,99.43,0
18.509,-0.4,99.43,0
18.529,-0.53,99.43,0
18.549,-0.28,99.43,0
18.569,0.09,99.43,0
18.589,-0.04,99.43,0
18.609,-0.16,99.43,0
18.629,-0.04,99.43,0
18.649,-0.4,99.43,0
18.669,-2.48,99.43,0
18.689,-4.44,99.43,0
18.709,-6.02,99.43,0
18.729,-8.35,99.55,0
18.749,-9.81,99.43,0
18.769,-10.42,99.43,0
18.789,-10.67,99.43,0
18.809,-10.91,99.43,0
18.829,-11.03,99.43,0
18.849,-11.16,99.43,0
18.869,-11.28,99.43,0
18.889,-11.28,99.43,0
18.909,-11.28,99.43,0
18.929,-11.28,99.43,0
18.949,-11.4,99.43,0
18.969,-11.28,99.43,0
18.989,-11.28,99.43,0
19.009,-11.4,99.43,0
19.029,-11.4,99.55,1
19.049,-11.4,99.43,1
19.069,-11.4,99.43,1
19.089,-11.4,99.43,1
19.109,-11.4,99.43,1
19.129,-11.4,99.43,1
19.149,-11.4,99.43,1
19.169,-11.4,99.43,1
19.189,-11.4,99.43,1
19.209,-11.4,99.55,1
19.229,-11.4,99.43,1
19.249,-11.4,99.43,1
19.269,-11.16,99.43,1
19.289,-10.54,99.43,1
19.309,-9.81,99.43,1
19.329,-8.35,99.43,1
19.349,-6.39,99.43,1
19.369,-5.41,99.55,1
19.389,-4.56,99.43,1
19.409,-3.82,99.43,1
19.429,-3.09,99.43,1
19.449,-2.72,99.43,1
19.469,-2.48,99.43,1
19.489,-2.11,99.43,1
19.509,-1.63,99.43,1
19.529,-1.38,99.43,0
19.549,-1.26,99.43,0
19.569,-1.14,99.43,0
19.589,-1.01,99.55,0
19.609,-0.65,99.43,0
19.629,-0.77,99.43,0
19.649,-0.77,99.43,0
19.669,-0.65,99.43,0
19.689,-0.53,99.43,0
19.709,-0.28,99.55,0
19.71,-0.28,99.55,0
19.73,-0.53,99.43,0
19.75,-0.53,99.43,0
19.77,-0.16,99.55,0
19.79,-0.16,99.43,0
19.81,-0.04,99.43,0
19.83,-0.04,99.43,0
19.85,-0.04,99.43,0
19.87,-1.01,99.43,0
19.89,-3.21,99.43,0
19.91,-5.05,99.43,0
19.93,-6.76,99.43,0
19.95,-8.96,99.43,0
19.97,-10.06,99.55,0
19.99,-10.54,99.43,0
20.01,-10.79,99.43,0
20.03,-10.91,99.43,0
20.05,-11.03,99.43,0
20.07,-11.16,99.43,0
20.09,-11.16,99.43,0
20.11,-11.28,99.43,0
20.111,-11.28,99.43,0
20.131,-11.28,99.43,0
20.151,-11.4,99.43,0
20.171,-11.28,99.43,0
20.191,-11.28,99.43,0
20.211,-11.4,99.43,0
20.231,-11.4,99.43,1
20.251,-11.4,99.43,1
20.271,-11.4,99.43,1
20.291,-11.4,99.43,1
20.311,-11.4,99.43,1
20.331,-11.4,99.43,1
20.351,-11.4,99.55,1
20.371,-11.4,99.43,1
20.391,-11.4,99.43,1
20.411,-11.4,99.43,1
20.431,-11.52,99.43,1
20.451,-11.4,99.43,1
20.471,-10.91,99.43,1
20.491,-10.42,99.43,1
20.511,-9.45,99.43,1
20.531,-7.61,99.43,1
20.551,-6.02,99.43,1
20.571,-4.92,99.43,1
20.591,-4.31,99.43,1
20.611,-3.7,99.43,1
20.631,-3.09,99.43,1
20.651,-2.72,99.43,1
20.671,-2.11,99.43,1
20.691,-1.87,99.55,1
20.711,-1.26,99.55,1
20.731,-1.14,99.43,0
20.751,-1.01,99.43,0
20.771,-1.01,99.43,0
20.791,-0.89,99.43,0
20.811,-0.65,99.43,0
20.831,-0.53,99.43,0
20.851,-0.53,99.55,0
20.871,-0.4,99.43,0
20.891,-0.4,99.43,0
20.911,-0.28,99.43,0
20.931,-0.28,99.43,0
20.951,-0.53,99.43,0
20.971,-0.4,99.55,0
20.991,-0.16,99.43,0
21.011,-0.28,99.43,0
21.031,-0.04,99.43,0
21.051,0.09,99.43,0
21.071,-0.16,99.43,0
21.091,-1.87,99.43,0
21.111,-3.95,99.43,0
21.131,-5.54,99.43,0
21.151,-7.73,99.43,0
21.171,-9.57,99.43,0
21.191,-10.3,99.43,0
21.211,-10.67,99.43,0
21.231,-10.91,99.43,0
21.251,-11.03,99.43,0
21.271,-11.16,99.43,0
21.291,-11.16,99.43,0
21.311,-11.28,99.55,0
21.312,-11.28,99.43,0
21.332,-11.28,99.43,0
21.352,-11.4,99.43,0
21.372,-11.28,99.43,0
21.392,-11.4,99.43,0
21.412,-11.4,99.43,0
21.432,-11.4,99.43,1
21.452,-11.4,99.43,1
21.472,-11.4,99.43,1
21.492,-11.4,99.43,1
21.512,-11.4,99.43,1
21.532,-11.4,99.43,1
21.552,-11.4,99.43,1
21.572,-11.4,99.43,1
21.592,-11.4,99.43,1
21.612,-11.52,99.43,1
21.632,-11.52,99.43,1
21.652,-11.4,99.43,1
21.672,-11.28,99.43,1
21.692,-10.79,99.43,1
21.712,-10.18,99.43,1
21.712,-8.83,99.43,1
21.732,-6.88,99.55,1
21.752,-5.66,99.43,1
21.772,-4.68,99.43,1
21.792,-4.07,99.43,1
21.812,-3.46,99.43,1
21.832,-2.85,99.43,1
21.852,-2.48,99.55,1
21.872,-1.99,99.43,1
21.892,-1.87,99.43,1
21.912,-1.38,99.43,1
21.932,-1.14,99.43,0
21.952,-1.14,99.43,0
21.972,-0.89,99.43,0
21.992,-0.89,99.43,0
22.012,-0.65,99.43,0
22.032,-0.65,99.43,0
22.052,-0.4,99.43,0
22.072,-0.28,99.43,0
22.092,-0.4,99.43,0
22.113,-0.16,99.43,0
22.133,-0.28,99.55,0
22.153,-0.28,99.43,0
22.173,-0.16,99.43,0
22.193,0.09,99.43,0
22.213,-0.04,99.43,0
22.233,0.09,99.43,0
22.253,0.21,99.43,0
22.273,-0.4,99.43,0
22.293,-2.36,99.43,0
22.313,-4.31,99.55,0
22.333,-5.78,99.43,0
22.353,-8.22,99.43,0
22.373,-9.69,99.43,0
22.393,-10.3,99.43,0
22.413,-10.67,99.43,0
22.433,-10.91,99.43,0
22.453,-11.03,99.43,0
22.473,-11.16,99.43,0
22.493,-11.16,99.43,0
22.513,-11.28,99.43,0
22.533,-11.28,99.43,0
22.553,-11.4,99.43,0
22.573,-11.4,99.43,0
22.593,-11.28,99.43,0
22.613,-11.4,99.55,0
22.633,-11.4,99.43,0
22.653,-11.4,99.43,1
22.673,-11.4,99.43,1
22.693,-11.4,99.43,1
22.713,-11.4,99.43,1
22.733,-11.4,99.43,1
22.753,-11.4,99.43,1
22.773,-11.4,99.43,1
22.793,-11.4,99.43,1
22.813,-11.4,99.43,1
22.833,-11.4,99.43,1
22.853,-11.4,99.43,1
22.873,-11.52,99.43,1
22.893,-11.16,99.43,1
22.913,-10.67,99.43,1
22.914,-9.93,99.43,1
22.934,-8.47,99.55,1
22.954,-6.63,99.43,1
22.974,-5.54,99.43,1
22.994,-4.56,99.43,1
23.014,-3.82,99.43,1
23.034,-3.34,99.43,1
23.054,-2.72,99.43,1
23.074,-2.36,99.43,1
23.094,-1.75,99.43,1
23.114,-1.75,99.43,1
23.134,-1.26,99.43,1
23.154,-1.01,99.43,0
23.174,-1.01,99.43,0
23.194,-0.77,99.43,0
23.214,-0.89,99.43,0
23.234,-0.65,99.43,0
23.254,-0.53,99.43,0
23.274,-0.4,99.43,0
23.294,-0.28,99.55,0
23.314,-0.4,99.43,0
23.316,-0.28,99.43,0
23.336,-0.4,99.43,0
23.356,-0.28,99.43,0
23.376,-0.28,99.43,0
23.396,-0.04,99.43,0
23.416,-0.04,99.43,0
23.436,-0.04,99.43,0
23.456,0.09,99.43,0
23.476,-0.89,99.43,0
23.496,-2.97,99.43,0
23.516,-4.8,99.43,0
23.536,-6.63,99.43,0
23.556,-8.96,99.43,0
23.576,-10.06,99.43,0
23.596,-10.42,99.55,0
23.616,-10.79,99.43,0
23.636,-10.91,99.43,0
23.656,-11.16,99.55,0
23.676,-11.16,99.43,0
23.696,-11.16,99.43,0
23.716,-11.28,99.43,0
23.736,-11.28,99.43,0
23.756,-11.28,99.43,0
23.776,-11.28,99.43,0
23.796,-11.28,99.43,0
23.816,-11.28,99.43,0
23.836,-11.4,99.43,1
23.856,-11.4,99.43,1
23.876,-11.4,99.43,1
23.896,-11.4,99.43,1
23.916,-11.4,99.43,1
23.936,-11.4,99.43,1
23.956,-11.4,99.43,1
23.976,-11.4,99.43,1
23.996,-11.4,99.43,1
24.016,-11.4,99.43,1
24.036,-11.4,99.55,1
24.056,-11.4,99.43,1
24.076,-11.4,99.43,1
24.096,-11.03,99.43,1
24.116,-10.42,99.43,1
24.117,-9.57,99.43,1
24.137,-7.86,99.43,1
24.157,-6.27,99.43,1
24.177,-5.17,99.43,1
24.197,-4.19,99.43,1
24.217,-3.7,99.43,1
24.237,-3.09,99.43,1
24.257,-2.6,99.43,1
24.277,-2.24,99.43,1
24.297,-1.75,99.55,1
24.317,-1.63,99.43,1
24.337,-1.14,99.43,1
24.357,-1.01,99.43,0
24.377,-0.89,99.43,0
24.397,-0.65,99.43,0
24.417,-0.77,99.43,0
24.437,-0.53,99.55,0
24.457,-0.4,99.43,0
24.477,-0.16,99.43,0
24.497,-0.16,99.43,0
24.517,-0.28,99.55,0
24.537,-0.16,99.43,0
24.557,-0.28,99.43,0
24.577,-0.04,99.43,0
24.597,-0.16,99.43,0
24.617,0.09,99.43,0
24.637,0.09,99.43,0
24.657,0.09,99.43,0
24.677,0.09,99.43,0
24.697,-1.14,99.43,0
24.717,-3.34,99.43,0
24.737,-5.05,99.55,0
24.757,-7.25,99.43,0
24.777,-9.32,99.43,0
24.797,-10.06,99.43,0
24.817,-10.54,99.43,0
24.837,-10.79,99.43,0
24.857,-11.03,99.43,0
24.877,-11.16,99.43,0
24.897,-11.16,99.43,0
24.917,-11.28,99.55,0
24.918,-11.28,99.43,0
24.938,-11.28,99.43,0
24.958,-11.4,99.43,0
24.978,-11.4,99.43,0
24.998,-11.4,99.43,0
25.018,-11.4,99.43,0
25.038,-11.4,99.43,1
25.058,-11.4,99.43,1
25.078,-11.4,99.43,1
25.098,-11.4,99.43,1
25.118,-11.4,99.43,1
25.138,-11.4,99.43,1
25.158,-11.4,99.43,1
25.178,-11.4,99.43,1
25.198,-11.4,99.43,1
25.218,-11.52,99.43,1
25.238,-11.4,99.43,1
25.258,-11.4,99.43,1
25.278,-11.4,99.43,1
25.298,-10.91,99.43,1
25.318,-10.3,99.43,1
25.318,-9.32,99.43,1
25.338,-7.49,99.43,1
25.358,-6.02,99.43,1
25.378,-4.92,99.43,1
25.398,-4.07,99.43,1
25.418,-3.46,99.43,1
25.438,-3.09,99.43,1
25.458,-2.6,99.43,1
25.478,-2.11,99.43,1
25.498,-1.63,99.55,1
25.518,-1.63,99.43,1
25.538,-1.14,99.43,0
25.558,-1.01,99.43,0
25.578,-0.89,99.43,0
25.598,-0.77,99.43,0
25.618,-0.89,99.43,0
25.638,-0.65,99.43,0
25.658,-0.53,99.43,0
25.678,-0.28,99.43,0
25.698,-0.28,99.43,0
25.719,-0.4,99.43,0
25.739,-0.28,99.43,0
25.759,-0.4,99.43,0
25.779,-0.16,99.43,0
25.799,-0.16,99.43,0
25.819,-0.04,99.43,0
25.839,0.09,99.43,0
25.859,0.09,99.43,0
25.879,0.09,99.43,0
25.899,-1.75,99.43,0
25.919,-3.82,99.43,0
25.939,-5.41,99.43,0
25.959,-7.86,99.43,0
25.979,-9.57,99.55,0
25.999,-10.18,99.43,0
26.019,-10.67,99.43,0
26.039,-10.79,99.43,0
26.059,-11.03,99.43,0
26.079,-11.16,99.43,0
26.099,-11.16,99.55,0
26.119,-11.28,99.43,0
26.119,-11.28,99.43,0
26.139,-11.4,99.43,0
26.159,-11.28,99.43,0
26.179,-11.4,99.43,0
26.199,-11.4,99.43,0
26.219,-11.4,99.43,0
26.239,-11.4,99.43,1
26.259,-11.4,99.43,1
26.279,-11.4,99.43,1
26.299,-11.4,99.43,1
26.319,-11.4,99.43,1
26.339,-11.4,99.43,1
26.359,-11.4,99.43,1
26.379,-11.4,99.43,1
26.399,-11.4,99.43,1
26.419,-11.4,99.43,1
26.439,-11.4,99.43,1
26.459,-11.4,99.43,1
26.479,-11.28,99.43,1
26.499,-10.79,99.43,1
26.52,-10.06,99.43,1
26.54,-8.83,99.43,1
26.56,-7.0,99.43,1
26.58,-5.66,99.43,1
26.6,-4.68,99.43,1
26.62,-3.82,99.43,1
26.64,-3.34,99.43,1
26.66,-2.97,99.43,1
26.68,-2.36,99.43,1
26.7,-1.99,99.43,1
26.72,-1.5,99.43,1
26.74,-1.5,99.43,1
26.76,-1.26,99.43,0
26.78,-1.01,99.43,0
26.8,-0.89,99.43,0
26.82,-0.77,99.43,0
26.84,-0.89,99.43,0
26.86,-0.65,99.43,0
26.88,-0.53,99.55,0
26.9,-0.4,99.43,0
26.92,-0.28,99.43,0
26.921,-0.53,99.43,0
26.941,-0.4,99.43,0
26.961,-0.53,99.43,0
26.981,-0.28,99.43,0
27.001,-0.28,99.43,0
27.021,-0.16,99.43,0
27.041,-0.04,99.43,0
27.061,-0.04,99.43,0
27.081,-0.65,99.43,0
27.101,-2.85,99.43,0
27.121,-4.68,99.43,0
27.141,-6.39,99.43,0
27.161,-8.71,99.43,0
27.181,-9.81,99.43,0
27.201,-10.42,99.55,0
27.221,-10.79,99.43,0
27.241,-10.91,99.43,0
27.261,-11.16,99.43,0
27.281,-11.16,99.43,0
27.301,-11.28,99.43,0
27.321,-11.28,99.55,0
27.341,-11.4,99.43,0
27.361,-11.28,99.43,0
27.381,-11.4,99.43,0
27.401,-11.4,99.43,0
27.421,-11.4,99.43,0
27.441,-11.4,99.55,1
27.461,-11.4,99.43,1
27.481,-11.4,99.43,1
27.501,-11.4,99.43,1
27.521,-11.4,99.43,1
27.541,-11.4,99.55,1
27.561,-11.4,99.43,1
27.581,-11.4,99.43,1
27.601,-11.4,99.43,1
27.621,-11.4,99.43,1
27.641,-11.52,99.43,1
27.661,-11.4,99.43,1
27.681,-11.52,99.43,1
27.701,-11.16,99.43,1
27.721,-10.67,99.43,1
27.722,-9.93,99.43,1
27.742,-8.35,99.43,1
27.762,-6.76,99.43,1
27.782,-5.41,99.43,1
27.802,-4.56,99.43,1
27.822,-3.82,99.43,1
27.842,-3.21,99.43,1
27.862,-2.97,99.43,1
27.882,-2.36,99.55,1
27.902,-2.11,99.43,1
27.922,-1.63,99.43,1
27.942,-1.38,99.43,1
27.962,-1.26,99.43,0
27.982,-0.89,99.43,0
28.002,-0.89,99.43,0
28.022,-0.53,99.55,0
28.042,-0.77,99.43,0
28.062,-0.65,99.43,0
28.082,-0.28,99.43,0
28.102,-0.16,99.43,0
28.122,-0.04,99.43,0
28.122,-0.28,99.55,0
28.142,-0.4,99.43,0
28.162,-0.16,99.43,0
28.182,-0.16,99.43,0
28.202,0.21,99.43,0
28.222,-0.04,99.43,0
28.242,0.09,99.43,0
28.262,0.09,99.43,0
28.282,-0.89,99.43,0
28.302,-3.09,99.43,0
28.322,-4.92,99.43,0
28.342,-6.88,99.43,0
28.362,-9.08,99.43,0
28.382,-10.06,99.43,0
28.402,-10.54,99.43,0
28.422,-10.79,99.43,0
28.442,-11.03,99.43,0
28.462,-11.16,99.43,0
28.482,-11.16,99.43,0
28.502,-11.28,99.43,0
28.523,-11.28,99.43,0
28.543,-11.28,99.43,0
28.563,-11.28,99.43,0
28.583,-11.28,99.43,0
28.603,-11.4,99.43,0
28.623,-11.4,99.43,0
28.643,-11.4,99.43,1
28.663,-11.4,99.43,1
28.683,-11.4,99.43,1
28.703,-11.4,99.43,1
28.723,-11.4,99.43,1
28.743,-11.4,99.55,1
28.763,-11.4,99.43,1
28.783,-11.4,99.43,1
28.803,-11.4,99.43,1
28.823,-11.4,99.43,1
28.843,-11.4,99.43,1
28.863,-11.4,99.43,1
28.883,-11.4,99.55,1
28.903,-11.03,99.43,1
28.923,-10.42,99.55,1
28.943,-9.69,99.43,1
28.963,-7.86,99.55,1
28.983,-6.27,99.43,1
29.003,-5.29,99.43,1
29.023,-4.31,99.43,1
29.043,-3.7,99.43,1
29.063,-2.97,99.43,1
29.083,-2.85,99.43,1
29.103,-2.48,99.43,1
29.123,-1.99,99.43,1
29.143,-1.63,99.43,1
29.163,-1.26,99.43,1
29.183,-1.26,99.43,0
29.203,-1.01,99.43,0
29.223,-0.89,99.43,0
29.243,-0.77,99.43,0
29.263,-0.77,99.43,0
29.283,-0.77,99.43,0
29.303,-0.53,99.43,0
29.324,-0.4,99.43,0
29.344,-0.16,99.43,0
29.364,-0.4,99.55,0
29.384,-0.53,99.43,0
29.404,-0.28,99.43,0
29.424,-0.28,99.43,0
29.444,0.09,99.55,0
29.464,-0.04,99.43,0
29.484,-0.04,99.43,0
29.504,0.09,99.43,0
29.524,-1.63,99.43,0
29.544,-3.7,99.43,0
29.564,-5.29,99.43,0
29.584,-7.61,99.43,0
29.604,-9.45,99.43,0
29.624,-10.18,99.43,0
29.644,-10.54,99.43,0
29.664,-10.79,99.43,0
29.684,-11.03,99.43,0
29.704,-11.16,99.43,0
29.724,-11.16,99.43,0
29.724,-11.28,99.43,0
29.744,-11.28,99.43,0
29.764,-11.28,99.43,0
29.784,-11.4,99.43,0
29.804,-11.4,99.43,0
29.824,-11.4,99.43,0
29.844,-11.4,99.43,0
29.864,-11.4,99.43,1
29.884,-11.4,99.43,1
29.904,-11.4,99.43,1
29.924,-11.4,99.43,1
29.944,-11.4,99.43,1
29.964,-11.4,99.43,1
29.984,-11.4,99.43,1
30.004,-11.4,99.43,1
30.024,-11.52,99.43,1
30.044,-11.52,99.43,1
30.064,-11.52,99.43,1
30.084,-11.52,99.43,1
30.104,-11.28,99.43,1
30.124,-10.79,99.43,1
30.125,-10.3,99.43,1
30.145,-9.08,99.43,1
30.165,-7.12,99.43,1
30.185,-5.66,99.43,1
30.205,-4.92,99.43,1
30.225,-3.95,99.43,1
30.245,-3.46,99.43,1
30.265,-2.85,99.43,1
30.285,-2.6,99.43,1
30.305,-2.36,99.43,1
30.325,-1.75,99.43,1
30.345,-1.38,99.43,1
30.365,-1.01,99.43,0
30.385,-1.14,99.43,0
30.405,-1.01,99.43,0
30.425,-0.77,99.43,0
30.445,-0.65,99.43,0
30.465,-0.53,99.43,0
30.485,-0.65,99.43,0
30.505,-0.4,99.43,0
30.525,-0.28,99.43,0
30.526,-0.04,99.43,0
30.546,-0.28,99.43,0
30.566,-0.4,99.43,0
30.586,-0.28,99.43,0
30.606,-0.16,99.43,0
30.626,0.09,99.43,0
30.646,-0.16,99.43,0
30.666,-0.04,99.43,0
30.686,-0.28,99.43,0
30.706,-2.48,99.43,0
30.726,-4.44,99.43,0
30.746,-6.02,99.43,0
30.766,-8.47,99.43,0
30.786,-9.69,99.43,0
30.806,-10.3,99.43,0
30.826,-10.79,99.43,0
30.846,-10.91,99.43,0
30.866,-11.16,99.43,0
30.886,-11.16,99.43,0
30.906,-11.28,99.43,0
30.926,-11.28,99.55,0
30.934,,,
30.954,-11.28,99.43,0
30.974,-11.4,99.43,0
30.994,-11.28,99.43,0
31.014,-11.4,99.43,0
31.034,-11.4,99.43,0
31.054,-11.4,99.43,0
31.074,-11.4,99.43,1
31.098,-11.4,99.43,1
31.118,-11.4,99.43,1
31.143,-11.4,99.43,1
31.163,,,
31.174,-11.4,99.43,1
31.194,-11.4,99.43,1
31.214,-11.4,99.43,1
31.234,-11.4,99.43,1
31.257,-11.52,99.43,1
31.278,,,
31.294,-11.52,99.43,1
31.314,-11.52,99.43,1
31.334,-11.52,99.43,1
31.348,-11.28,99.43,1
31.372,-10.67,99.43,1
31.392,,,
31.408,-9.93,99.43,1
31.428,-8.47,99.43,1
31.448,-6.51,99.43,1
31.468,-5.41,99.43,1
31.488,-4.68,99.43,1
31.508,-3.82,99.43,1
31.528,-3.34,99.43,1
31.548,-2.72,99.43,1
31.569,-2.36,99.43,1
31.589,,,
31.608,-2.11,99.43,1
31.628,-1.75,99.43,1
31.648,-1.38,99.43,0
31.668,-1.14,99.43,0
31.688,-1.14,99.43,0
31.708,-0.89,99.43,0
31.728,-0.89,99.43,0
31.748,-0.65,99.43,0
31.766,-0.53,99.43,0
31.786,,,
31.806,-0.53,99.43,0
31.826,-0.4,99.43,0
31.846,-0.28,99.43,0
31.866,-0.16,99.43,0
31.886,-0.28,99.43,0
31.906,-0.4,99.55,0
31.926,-0.16,99.43,0
31.946,-0.04,99.43,0
31.966,0.09,99.43,0
31.986,,,
32.006,0.21,99.43,0
32.026,0.09,99.43,0
32.046,-0.77,99.43,0
32.066,-2.97,99.43,0
32.086,-4.8,99.43,0
32.106,-6.51,99.43,0
32.126,-8.96,99.43,0
32.146,-9.93,99.43,0
32.166,-10.42,99.43,0
32.186,-10.79,99.43,0
32.206,-11.03,99.43,0
32.226,,,
32.246,-11.16,99.43,0
32.266,-11.28,99.43,0
32.286,-11.28,99.43,0
32.306,-11.28,99.43,0
32.326,-11.28,99.43,0
32.346,-11.4,99.43,0
32.366,-11.4,99.43,0
32.386,,,
32.406,-11.28,99.43,0
32.426,-11.4,99.43,0
32.446,-11.4,99.43,0
32.466,-11.4,99.43,1
32.486,-11.4,99.43,1
32.506,-11.4,99.43,1
32.526,-11.4,99.43,1
32.547,-11.4,99.43,1
32.568,-11.4,99.43,1
32.592,-11.4,99.55,1
32.613,,,
32.628,-11.4,99.43,1
32.648,-11.4,99.43,1
32.668,-11.4,99.43,1
32.688,-11.4,99.43,1
32.708,-11.4,99.43,1
32.728,,,
32.748,-11.03,99.43,1
32.768,-10.54,99.43,1
32.788,-9.81,99.43,1
32.808,-8.47,99.43,1
32.828,-6.63,99.43,1
32.848,-5.41,99.43,1
32.869,-4.56,99.43,1
32.888,-3.95,99.43,1
32.908,-3.34,99.43,1
32.928,-2.72,99.55,1
32.949,,,
32.968,-2.24,99.43,1
32.973,-2.11,99.43,1
32.994,-1.75,99.55,1
33.015,,,
33.033,-1.63,99.43,1
33.053,-1.14,99.43,0
33.073,-1.14,99.55,0
33.093,-1.01,99.43,0
33.113,-0.89,99.43,0
33.133,-0.89,99.43,0
33.153,-0.77,99.43,0
33.173,-0.65,99.43,0
33.193,-0.53,99.43,0
33.213,,,
33.233,-0.4,99.43,0
33.253,-0.28,99.43,0
33.273,-0.4,99.43,0
33.293,-0.4,99.43,0
33.313,-0.4,99.43,0
33.333,-0.28,99.43,0
33.353,-0.04,99.43,0
33.373,-0.04,99.43,0
33.388,-0.04,99.43,0
33.408,,,
33.428,-1.5,99.43,0
33.448,-3.58,99.43,0
33.468,-5.29,99.43,0
33.488,-7.49,99.43,0
33.508,-9.32,99.55,0
33.528,-10.06,99.43,0
33.548,-10.67,99.43,0
33.568,-10.79,99.43,0
33.588,-11.03,99.43,0
33.608,,,
33.628,-11.16,99.43,0
33.648,-11.16,99.43,0
33.668,-11.28,99.43,0
33.688,-11.28,99.43,0
33.708,-11.4,99.43,0
33.728,-11.28,99.43,0
33.748,-11.4,99.43,0
33.772,-11.28,99.43,0
33.793,,,
33.813,-11.4,99.55,0
33.833,-11.4,99.43,1
33.853,-11.4,99.43,1
33.873,-11.4,99.43,1
33.893,-11.4,99.43,1
33.913,-11.4,99.43,1
33.933,-11.4,99.43,1
33.953,,,
33.973,-11.4,99.43,1
33.993,-11.4,99.43,1
34.013,-11.4,99.43,1
34.033,-11.4,99.43,1
34.053,-11.4,99.43,1
34.073,-11.4,99.43,1
34.093,-11.28,99.55,1
34.116,-10.91,99.43,1
34.137,-10.3,99.43,1
34.161,-9.45,99.43,1
34.182,-7.61,99.43,1
34.203,,,
34.223,-6.02,99.55,1
34.243,-4.8,99.43,1
34.263,-4.07,99.43,1
34.283,-3.58,99.43,1
34.303,-3.09,99.43,1
34.323,-2.48,99.55,1
34.343,-2.11,99.43,1
34.363,-1.87,99.43,1
34.384,-1.5,99.43,1
34.403,-1.26,99.43,0
34.424,-0.89,99.43,0
34.444,-0.89,99.43,0
34.468,-0.77,99.43,0
34.489,-0.77,99.43,0
34.509,-0.65,99.55,0
34.534,-0.65,99.43,0
34.554,-0.53,99.43,0
34.575,-0.4,99.43,0
34.599,-0.4,99.43,0
34.62,-0.16,99.43,0
34.64,-0.28,99.43,0
34.665,-0.53,99.43,0
34.686,-0.28,99.43,0
34.706,,,
34.72,-0.4,99.43,0
34.74,0.09,99.43,0
34.76,0.09,99.43,0
34.78,-0.16,99.43,0
34.8,-2.24,99.43,0
34.82,-4.19,99.43,0
34.84,-5.9,99.43,0
34.86,-8.35,99.43,0
34.88,,,
34.9,-9.57,99.43,0
34.92,-10.42,99.43,0
34.94,-10.67,99.43,0
34.96,-10.91,99.43,0
34.98,-11.03,99.55,0
35.0,-11.03,99.43,0
35.021,-11.28,99.43,0
35.041,,,
35.061,-11.28,99.43,0
35.081,-11.28,99.43,0
35.101,-11.28,99.43,0
35.121,-11.4,99.43,0
35.141,-11.28,99.55,0
35.161,-11.4,99.43,0
35.181,-11.4,99.43,0
35.201,-11.4,99.43,1
35.222,-11.4,99.43,1
35.246,-11.4,99.43,1
35.267,,,
35.281,-11.4,99.43,1
35.301,-11.4,99.43,1
35.321,-11.4,99.43,1
35.341,-11.4,99.55,1
35.361,-11.4,99.43,1
35.382,,,
35.401,-11.4,99.43,1
35.422,-11.4,99.43,1
35.442,-11.4,99.43,1
35.462,-11.4,99.55,1
35.482,-11.16,99.43,1
35.502,-10.67,99.43,1
35.522,-10.06,99.55,1
35.542,,,
35.562,-8.71,99.43,1
35.582,-6.88,99.43,1
35.602,-5.41,99.55,1
35.622,-4.56,99.43,1
35.642,-4.07,99.55,1
35.662,-3.34,99.43,1
35.682,-2.85,99.43,1
35.702,-2.24,99.43,1
35.722,-2.11,99.43,1
35.742,-1.87,99.43,1
35.763,-1.38,99.43,1
35.783,-1.14,99.43,0
35.808,-0.65,99.43,0
35.829,-0.89,99.43,0
35.849,-0.77,99.43,0
35.873,-0.65,99.43,0
35.894,-0.53,99.43,0
35.914,-0.28,99.43,0
35.939,-0.4,99.43,0
35.959,-0.28,99.43,0
35.98,-0.28,99.43,0
36.004,-0.16,99.43,0
36.025,-0.16,99.43,0
36.045,,,
36.049,,,
36.069,-0.28,99.43,0
36.089,-0.04,99.43,0
36.109,-0.04,99.43,0
36.129,0.09,99.43,0
36.149,0.21,99.43,0
36.169,-0.77,99.43,0
36.189,-2.85,99.43,0
36.209,-4.68,99.43,0
36.229,-6.51,99.43,0
36.242,-8.83,99.43,0
36.262,-9.81,99.43,0
36.283,,,
36.302,-10.42,99.43,0
36.322,-10.79,99.43,0
36.342,-10.91,99.43,0
36.362,-11.03,99.43,0
36.382,-11.16,99.43,0
36.402,-11.28,99.43,0
36.422,-11.28,99.43,0
36.446,-11.28,99.43,0
36.467,,,
36.482,-11.28,99.43,0
36.502,-11.4,99.43,0
36.522,-11.4,99.43,0
36.542,-11.4,99.55,0
36.562,-11.4,99.55,0
36.582,-11.4,99.43,1
36.606,-11.4,99.43,1
36.627,,,
36.643,-11.4,99.43,1
36.663,-11.4,99.43,1
36.683,-11.4,99.43,1
36.703,-11.4,99.43,1
36.723,-11.52,99.43,1
36.743,,,
36.763,-11.4,99.43,1
36.783,-11.52,99.43,1
36.803,-11.52,99.43,1
36.823,-11.52,99.43,1
36.843,-11.4,99.43,1
36.863,-11.16,99.43,1
36.883,-10.54,99.43,1
36.905,-9.93,99.43,1
36.926,-8.35,99.43,1
36.946,-6.51,99.43,1
36.971,-5.17,99.43,1
36.991,-4.44,99.43,1
37.012,-3.82,99.43,1
37.036,-3.21,99.43,1
37.057,-2.72,99.43,1
37.078,,,
37.097,-2.11,99.43,1
37.117,-1.75,99.43,1
37.137,-1.63,99.43,1
37.157,-1.26,99.43,1
37.177,-0.89,99.43,0
37.197,-0.53,99.43,0
37.217,-0.65,99.43,0
37.237,-0.65,99.43,0
37.257,-0.4,99.43,0
37.277,,,
37.297,-0.04,99.43,0
37.317,0.09,99.43,0
37.337,-0.16,99.43,0
37.357,-0.04,99.43,0
37.377,0.09,99.43,0
37.397,0.21,99.43,0
37.417,0.33,99.43,0
37.437,0.21,99.43,0
37.458,0.09,99.43,0
37.478,0.21,99.43,0
37.498,0.45,99.43,0
37.518,0.7,99.43,0
37.538,-0.16,99.43,0
37.558,-2.24,99.43,0
37.578,-4.31,99.43,0
37.598,-6.02,99.43,0
37.618,-8.47,99.55,0
37.639,-9.81,99.43,0
37.659,-10.3,99.43,0
37.684,-10.79,99.43,0
37.704,,,
37.718,-10.91,99.43,0
37.738,-11.03,99.43,0
37.758,-11.16,99.43,0
37.778,-11.28,99.43,0
37.798,-11.28,99.43,0
37.819,,,
37.838,-11.4,99.43,0
37.858,-11.4,99.43,0
37.864,,,
37.884,-11.4,99.43,0
37.904,-11.4,99.43,0
37.924,-11.4,99.43,0
37.944,-11.4,99.43,1
37.964,-11.4,99.43,1
37.984,-11.4,99.43,1
38.004,-11.4,99.43,1
38.027,-11.4,99.43,1
38.048,,,
38.064,-11.4,99.43,1
38.084,-11.4,99.43,1
38.104,-11.52,99.55,1
38.124,-11.52,99.43,1
38.144,-11.52,99.43,1
38.164,-11.52,99.43,1
38.187,-11.52,99.43,1
38.208,,,
38.224,-11.52,99.43,1
38.244,-11.16,99.43,1
38.265,-10.67,99.43,1
38.285,-9.93,99.43,1
38.305,-8.47,99.43,1
38.325,-6.63,99.55,1
38.345,-5.29,99.43,1
38.368,-4.44,99.43,1
38.388,-3.82,99.43,1
38.409,-3.46,99.43,1
38.433,-2.85,99.43,1
38.454,-2.11,99.43,1
38.474,,,
38.485,-1.75,99.43,1
38.505,-1.75,99.43,1
38.525,-1.5,99.43,1
38.545,-1.01,99.55,0
38.565,-0.65,99.43,0
38.585,-0.65,99.43,0
38.605,,,
38.625,-0.77,99.43,0
38.645,-0.53,99.43,0
38.665,-0.4,99.43,0
38.671,,,
38.691,-0.04,99.43,0
38.711,-0.04,99.43,0
38.731,-0.28,99.43,0
38.751,-0.04,99.43,0
38.771,0.09,99.43,0
38.791,0.21,99.43,0
38.811,-0.04,99.43,0
38.831,-0.16,99.55,0
38.851,0.21,99.43,0
38.871,0.33,99.43,0
38.891,0.45,99.43,0
38.911,-0.53,99.43,0
38.931,-2.72,99.43,0
38.951,,,
38.971,-4.56,99.43,0
38.991,-6.39,99.43,0
39.011,-8.71,99.43,0
39.031,-9.93,99.43,0
39.051,-10.42,99.43,0
39.071,-10.79,99.43,0
39.091,-10.91,99.43,0
39.111,-11.16,99.43,0
39.131,-11.16,99.43,0
39.154,-11.28,99.43,0
39.174,,,
39.191,-11.28,99.43,0
39.211,-11.28,99.43,0
39.231,-11.4,99.43,0
39.251,-11.4,99.43,0
39.271,-11.4,99.43,0
39.291,,,
39.311,-11.4,99.43,0
39.331,-11.4,99.43,1
39.351,-11.4,99.43,1
39.371,-11.52,99.43,1
39.391,-11.4,99.43,1
39.411,-11.4,99.43,1
39.431,-11.4,99.43,1
39.453,-11.4,99.43,1
39.474,-11.52,99.55,1
39.499,-11.52,99.43,1
39.519,,,
39.534,-11.52,99.43,1
39.554,-11.52,99.55,1
39.574,-11.52,99.43,1
39.594,-11.4,99.43,1
39.614,-11.16,99.43,1
39.634,,,
39.654,-10.67,99.43,1
39.674,-10.06,99.43,1
39.694,-8.71,99.43,1
39.714,-6.88,99.43,1
39.734,-5.66,99.43,1
39.754,-4.56,99.43,1
39.774,-3.82,99.43,1
39.794,-3.58,99.43,1
39.814,-2.97,99.43,1
39.834,-2.36,99.43,1
39.854,-1.75,99.43,1
39.88,-1.5,99.43,1
39.9,-1.63,99.55,1
39.92,-1.14,99.43,0
39.944,-0.77,99.43,0
39.965,-0.53,99.43,0
39.985,-0.65,99.55,0
40.01,-0.77,99.43,0
40.031,-0.4,99.43,0
40.051,-0.16,99.43,0
40.076,-0.04,99.43,0
40.096,-0.28,99.43,0
40.117,,,
40.12,,,
40.14,-0.28,99.43,0
40.16,-0.04,99.43,0
40.18,0.09,99.43,0
40.2,0.09,99.43,0
40.22,-0.16,99.43,0
40.24,0.09,99.43,0
40.26,0.33,99.43,0
40.28,0.45,99.43,0
40.3,-0.65,99.43,0
40.32,-2.85,99.43,0
40.34,-4.68,99.43,0
40.36,-6.88,99.43,0
40.38,-9.08,99.43,0
40.4,-9.93,99.43,0
40.42,-10.54,99.43,0
40.44,,,
40.46,-10.79,99.43,0
40.48,-11.03,99.43,0
40.5,-11.16,99.43,0
40.52,-11.28,99.43,0
40.54,-11.28,99.43,0
40.56,-11.4,99.43,0
40.58,-11.4,99.43,0
40.604,-11.4,99.43,0
40.624,-11.4,99.43,0
40.649,-11.4,99.43,0
40.669,,,
40.681,-11.4,99.43,0
40.701,-11.4,99.43,1
40.721,-11.4,99.43,1
40.741,-11.52,99.43,1
40.764,-11.4,99.43,1
40.784,,,
40.801,-11.52,99.43,1
40.821,-11.4,99.43,1
40.841,-11.52,99.43,1
40.861,-11.52,99.43,1
40.881,-11.52,99.43,1
40.901,-11.52,99.43,1
40.923,-11.52,99.43,1
40.944,,,
40.961,-11.52,99.43,1
40.981,-11.4,99.43,1
41.001,-11.03,99.43,1
41.021,-10.54,99.43,1
41.041,-9.69,99.43,1
41.061,-7.98,99.55,1
41.081,,,
41.101,-6.39,99.43,1
41.121,-5.05,99.43,1
41.141,-4.31,99.43,1
41.161,-3.58,99.43,1
41.181,-3.34,99.43,1
41.201,-2.85,99.55,1
41.221,-2.11,99.43,1
41.241,-1.63,99.43,1
41.261,-1.26,99.43,1
41.281,-1.5,99.43,1
41.301,-1.01,99.43,0
41.321,-0.65,99.43,0
41.345,-0.53,99.55,0
41.366,-0.53,99.55,0
41.386,-0.77,99.43,0
41.411,-0.28,99.43,0
41.432,-0.04,99.43,0
41.452,,,
41.461,0.09,99.43,0
41.481,-0.16,99.43,0
41.501,-0.16,99.43,0
41.521,-0.04,99.43,0
41.541,,,
41.561,0.21,99.43,0
41.581,0.21,99.43,0
41.601,-0.16,99.43,0
41.621,0.09,99.43,0
41.641,0.45,99.43,0
41.661,0.45,99.43,0
41.681,-0.89,99.43,0
41.701,-3.09,99.43,0
41.721,-4.8,99.43,0
41.741,-7.12,99.43,0
41.761,-9.2,99.43,0
41.781,-10.06,99.43,0
41.801,-10.67,99.43,0
41.821,-10.79,99.43,0
41.845,-11.03,99.43,0
41.865,-11.16,99.43,0
41.89,-11.28,99.43,0
41.911,,,
41.93,-11.4,99.43,0
41.95,-11.28,99.43,0
41.97,-11.4,99.43,0
41.99,-11.4,99.43,0
42.01,-11.4,99.43,0
42.03,-11.4,99.43,0
42.05,-11.4,99.43,0
42.074,-11.4,99.43,1
42.095,-11.4,99.43,1
42.119,-11.4,99.43,1
42.14,,,
42.15,-11.4,99.43,1
42.17,-11.52,99.43,1
42.19,-11.4,99.43,1
42.21,-11.52,99.43,1
42.234,-11.52,99.43,1
42.254,,,
42.27,-11.52,99.43,1
42.29,-11.52,99.55,1
42.3,,,
42.32,-11.52,99.43,1
42.34,-11.52,99.43,1
42.36,-11.4,99.43,1
42.38,-11.03,99.43,1
42.4,-10.54,99.43,1
42.42,-9.57,99.43,1
42.44,-7.73,99.43,1
42.46,-6.27,99.43,1
42.481,,,
42.5,-5.05,99.43,1
42.52,-4.07,99.43,1
42.54,-3.46,99.43,1
42.56,-3.21,99.43,1
42.58,-2.85,99.43,1
42.6,-2.11,99.43,1
42.62,-1.63,99.43,1
42.64,-1.38,99.43,1
42.66,-1.5,99.43,0
42.68,-1.26,99.43,0
42.701,-0.65,99.55,0
42.722,-0.53,99.43,0
42.746,-0.65,99.43,0
42.766,-0.77,99.43,0
42.787,,,
42.801,-0.4,99.43,0
42.821,-0.04,99.43,0
42.841,-0.04,99.43,0
42.861,-0.28,99.43,0
42.881,-0.28,99.43,0
42.901,-0.04,99.43,0
42.921,,,
42.941,0.09,99.43,0
42.961,0.09,99.43,0
42.981,-0.28,99.43,0
43.001,-0.16,99.43,0
43.021,0.33,99.43,0
43.041,0.21,99.43,0
43.061,-1.63,99.43,0
43.081,-3.58,99.43,0
43.101,-5.05,99.43,0
43.121,-6.02,99.43,0
43.141,-7.37,99.43,0
43.161,-9.32,99.43,0
43.181,-10.06,99.43,0
43.201,-10.67,99.43,0
43.225,-10.79,99.43,0
43.246,-11.03,99.43,0
43.27,-11.03,99.43,0
43.291,,,
43.301,-11.28,99.43,0
43.321,-11.28,99.43,0
43.341,-11.28,99.43,0
43.361,-11.28,99.43,0
43.385,-11.4,99.43,0
43.406,,,
43.421,-11.4,99.43,0
43.441,-11.4,99.43,0
43.461,-11.4,99.43,1
43.481,-11.4,99.43,1
43.501,-11.4,99.43,1
43.52,,,
43.54,-11.4,99.43,1
43.56,-11.4,99.43,1
43.58,-11.4,99.43,1
43.6,-11.4,99.55,1
43.62,-11.4,99.43,1
43.64,-11.52,99.43,1
43.66,-11.52,99.43,1
43.68,,,
43.7,-11.52,99.43,1
43.72,-11.52,99.43,1
43.74,-11.4,99.43,1
43.76,-10.91,99.55,1
43.78,-10.42,99.43,1
43.8,-9.32,99.43,1
43.82,-7.61,99.43,1
43.84,-6.02,99.43,1
43.86,,,
43.88,-4.8,99.43,1
43.9,-4.07,99.43,1
43.921,-3.7,99.43,1
43.941,-3.34,99.43,1
43.961,-2.36,99.43,1
43.981,-1.87,99.43,1
44.001,-1.63,99.55,1
44.021,-1.63,99.43,1
44.041,-1.38,99.43,0
44.061,-0.89,99.43,0
44.081,-0.65,99.43,0
44.102,-0.89,99.43,0
44.122,,,
44.141,-0.89,99.43,0
44.161,-0.65,99.43,0
44.181,-0.16,99.43,0
44.201,-0.16,99.43,0
44.221,-0.4,99.43,0
44.241,-0.65,99.43,0
44.261,-0.16,99.43,0
44.281,-0.04,99.43,0
44.301,0.09,99.43,0
44.321,,,
44.321,,,
44.341,-0.28,99.43,0
44.361,-0.16,99.43,0
44.381,0.33,99.43,0
44.401,0.21,99.43,0
44.421,-0.16,99.43,0
44.441,-2.11,99.55,0
44.461,-4.19,99.43,0
44.481,-5.66,99.43,0
44.501,-8.1,99.43,0
44.521,-9.69,99.43,0
44.541,-10.42,99.43,0
44.561,-10.79,99.43,0
44.581,,,
44.601,-11.03,99.43,0
44.621,-11.03,99.43,0
44.641,-11.16,99.43,0
44.661,-11.28,99.43,0
44.681,-11.4,99.43,0
44.701,-11.4,99.43,0
44.721,-11.4,99.43,0
44.745,-11.4,99.43,0
44.765,-11.4,99.43,0
44.79,-11.4,99.43,0
44.81,,,
44.825,-11.4,99.43,0
44.845,-11.4,99.43,1
44.865,-11.4,99.43,1
44.885,-11.52,99.43,1
44.905,-11.52,99.43,1
44.925,,,
44.945,-11.4,99.43,1
44.965,-11.4,99.43,1
44.985,-11.52,99.43,1
45.005,-11.52,99.43,1
45.025,-11.52,99.43,1
45.045,-11.52,99.43,1
45.065,-11.52,99.43,1
45.085,,,
45.105,-11.52,99.55,1
45.125,-11.4,99.43,1
45.145,-10.91,99.55,1
45.155,-10.18,99.43,1
45.179,-8.71,99.43,1
45.2,-7.25,99.43,1
45.224,-5.54,99.43,1
45.244,-4.56,99.43,1
45.265,-3.82,99.55,1
45.289,-3.46,99.43,1
45.31,-3.09,99.43,1
45.33,-1.99,99.43,1
45.355,-1.63,99.43,1
45.376,-1.38,99.43,1
45.396,-1.38,99.43,1
45.421,-1.14,99.43,0
45.441,-0.53,99.43,0
45.462,,,
45.462,,,
45.475,-0.53,99.43,0
45.495,-0.53,99.43,0
45.515,-0.77,99.43,0
45.535,-0.53,99.43,0
45.555,-0.04,99.43,0
45.575,0.09,99.43,0
45.595,-0.16,99.43,0
45.615,,,
45.635,-0.53,99.43,0
45.655,-0.04,99.43,0
45.675,0.09,99.43,0
45.695,0.09,99.43,0
45.715,-0.04,99.43,0
45.735,-0.04,99.43,0
45.755,0.33,99.43,0
45.775,0.45,99.43,0
45.795,-0.28,99.43,0
45.815,-2.36,99.43,0
45.835,-4.31,99.43,0
45.855,-6.02,99.55,0
45.875,-8.35,99.43,0
45.896,-9.81,99.43,0
45.916,-10.54,99.55,0
45.941,-10.91,99.43,0
45.962,,,
45.982,-10.91,99.43,0
46.002,-11.16,99.43,0
46.022,-11.16,99.43,0
46.042,-11.4,99.43,0
46.062,-11.4,99.43,0
46.082,-11.4,99.43,0
46.102,-11.4,99.43,0
46.122,,,
46.142,-11.4,99.43,0
46.162,-11.4,99.43,0
46.182,-11.4,99.43,0
46.202,-11.4,99.43,0
46.222,-11.4,99.43,1
46.242,-11.52,99.43,1
46.262,-11.52,99.43,1
46.285,-11.52,99.43,1
46.305,-11.52,99.55,1
46.33,-11.52,99.43,1
46.351,,,
46.363,-11.52,99.43,1
46.383,-11.4,99.43,1
46.404,-11.52,99.43,1
46.423,-11.52,99.43,1
46.445,-11.52,99.43,1
46.465,,,
46.483,-11.52,99.43,1
46.503,-11.28,99.55,1
46.523,-10.79,99.43,1
46.543,-10.06,99.43,1
46.563,-8.47,99.43,1
46.583,-7.0,99.43,1
46.603,,,
46.623,-5.54,99.43,1
46.643,-4.44,99.43,1
46.663,-3.7,99.43,1
46.683,-3.21,99.43,1
46.703,-3.09,99.43,1
46.723,-2.24,99.43,1
46.743,-1.75,99.43,1
46.763,-1.5,99.43,1
46.783,-1.5,99.43,1
46.803,-1.38,99.43,0
46.823,-0.65,99.43,0
46.843,-0.65,99.43,0
46.866,-0.65,99.43,0
46.887,-0.89,99.43,0
46.907,-0.77,99.43,0
46.932,-0.16,99.55,0
46.952,-0.04,99.43,0
46.973,-0.16,99.43,0
46.998,-0.53,99.43,0
47.018,-0.28,99.43,0
47.038,0.09,99.43,0
47.059,,,
47.063,0.09,99.43,0
47.083,,,
47.103,0.09,99.43,0
47.123,-0.04,99.43,0
47.143,0.21,99.43,0
47.164,0.21,99.43,0
47.184,-0.65,99.43,0
47.204,-2.72,99.43,0
47.224,-4.56,99.55,0
47.244,-6.39,99.43,0
47.264,-8.59,99.43,0
47.284,-9.93,99.43,0
47.304,-10.67,99.43,0
47.324,-10.79,99.43,0
47.344,-11.03,99.43,0
47.366,-11.03,99.43,0
47.387,,,
47.404,-11.28,99.43,0
47.424,-11.28,99.43,0
47.444,-11.28,99.43,0
47.464,-11.28,99.55,0
47.484,-11.4,99.43,0
47.504,,,
47.524,-11.4,99.43,0
47.544,-11.4,99.43,0
47.565,-11.4,99.43,0
47.585,-11.4,99.43,1
47.605,-11.4,99.43,1
47.625,-11.52,99.43,1
47.645,-11.4,99.43,1
47.665,-11.4,99.43,1
47.686,-11.4,99.43,1
47.71,-11.4,99.43,1
47.731,,,
47.745,-11.4,99.43,1
47.765,-11.52,99.43,1
47.785,-11.52,99.43,1
47.805,-11.52,99.43,1
47.825,-11.52,99.43,1
47.846,,,
47.865,-11.52,99.43,1
47.885,-11.16,99.43,1
47.905,-10.54,99.43,1
47.925,-9.81,99.43,1
47.945,-8.1,99.43,1
47.965,-6.63,99.43,1
47.981,-5.54,99.43,1
48.001,,,
48.021,-4.31,99.43,1
48.041,-3.58,99.43,1
48.061,-3.21,99.43,1
48.081,-2.97,99.43,1
48.101,-2.36,99.55,1
48.121,-1.63,99.43,1
48.141,-1.38,99.43,1
48.161,-1.26,99.43,1
48.181,-1.38,99.43,1
48.202,-0.89,99.43,0
48.222,-0.65,99.43,0
48.243,-0.65,99.43,0
48.267,-0.77,99.43,0
48.288,-0.89,99.43,0
48.308,-0.16,99.55,0
48.333,-0.16,99.43,0
48.353,-0.28,99.43,0
48.374,-0.53,99.43,0
48.399,-0.53,99.43,0
48.419,0.09,99.43,0
48.439,0.09,99.43,0
48.46,-0.04,99.43,0
48.48,,,
48.499,-0.04,99.43,0
48.519,0.09,99.43,0
48.539,0.09,99.43,0
48.559,-1.01,99.43,0
48.579,-3.09,99.43,0
48.599,-4.92,99.43,0
48.619,-6.76,99.43,0
48.639,-8.96,99.43,0
48.659,-10.18,99.43,0
48.679,-10.67,99.43,0
48.701,-10.91,99.43,0
48.722,,,
48.739,-11.03,99.43,0
48.759,-11.16,99.43,0
48.779,-11.28,99.43,0
48.799,-11.28,99.43,0
48.819,-11.28,99.55,0
48.839,,,
48.859,-11.4,99.43,0
48.886,-11.4,99.43,0
48.899,-11.28,99.43,0
48.919,-11.4,99.43,0
48.939,-11.4,99.43,1
48.959,-11.4,99.43,1
48.979,-11.4,99.43,1
49.0,-11.52,99.43,1
49.021,-11.4,99.43,1
49.045,-11.4,99.43,1
49.066,,,
49.079,-11.4,99.43,1
49.099,-11.4,99.43,1
49.119,-11.4,99.43,1
49.139,-11.4,99.55,1
49.16,-11.52,99.43,1
49.18,,,
49.2,-11.52,99.43,1
49.22,-11.4,99.43,1
49.24,-11.4,99.43,1
49.26,-11.03,99.43,1
49.28,-10.42,99.43,1
49.3,-9.45,99.43,1
49.32,-7.61,99.43,1
49.34,-6.27,99.43,1
49.361,,,
49.38,-5.29,99.43,1
49.4,-4.19,99.43,1
49.42,-3.58,99.43,1
49.44,-3.09,99.43,1
49.46,-2.85,99.43,1
49.48,-2.36,99.43,1
49.5,-1.63,99.43,1
49.52,-1.5,99.43,1
49.54,-1.38,99.55,1
49.56,,,
49.58,-1.38,99.43,1
49.6,-0.89,99.43,0
49.62,-0.77,99.43,0
49.64,-0.77,99.55,0
49.66,-0.89,99.43,0
49.68,-0.89,99.43,0
49.7,-0.4,99.43,0
49.72,-0.28,99.43,0
49.74,-0.28,99.43,0
49.76,-0.65,99.43,0
49.78,-0.53,99.43,0
49.8,-0.04,99.43,0
49.82,,,
49.84,-0.04,99.43,0
49.86,-0.04,99.43,0
49.88,-0.16,99.43,0
49.9,0.09,99.43,0
49.92,0.09,99.43,0
49.94,-1.87,99.43,0
49.96,-3.82,99.43,0
49.98,-5.41,99.43,0
50.0,-7.61,99.43,0
50.016,-9.45,99.43,0
50.037,,,
50.056,-10.42,99.43,0
50.076,-10.79,99.43,0
50.096,-10.91,99.43,0
50.116,-11.03,99.43,0
50.136,-11.16,99.43,0
50.156,-11.28,99.43,0
50.176,-11.4,99.43,0
50.196,,,
50.216,-11.28,99.43,0
50.236,-11.28,99.55,0
50.256,-11.4,99.43,0
50.276,-11.4,99.43,0
50.296,-11.4,99.43,1
50.316,-11.4,99.43,1
50.336,-11.4,99.43,1
50.36,-11.4,99.43,1
50.381,-11.4,99.43,1
50.405,-11.4,99.43,1
50.426,,,
50.446,-11.4,99.43,1
50.466,-11.4,99.43,1
50.486,-11.4,99.43,1
50.506,-11.4,99.43,1
50.526,-11.4,99.43,1
50.546,-11.52,99.43,1
50.566,-11.4,99.43,1
50.589,-11.52,99.43,1
50.61,-11.28,99.43,1
50.634,-10.91,99.43,1
50.655,,,
50.666,-10.3,99.43,1
50.686,-9.2,99.43,1
50.706,-7.25,99.43,1
50.726,-6.02,99.43,1
50.746,-4.92,99.43,1
50.766,,,
50.786,-3.95,99.43,1
50.806,-3.46,99.43,1
50.827,-3.09,99.43,1
50.847,-2.72,99.43,1
50.867,-2.36,99.43,1
50.887,-1.63,99.43,1
50.907,-1.5,99.55,1
50.927,-1.26,99.43,1
50.947,-1.38,99.43,1
50.967,-0.89,99.43,0
50.987,-0.77,99.43,0
51.007,-0.89,99.43,0
51.028,,,
51.047,-0.77,99.43,0
51.067,-0.77,99.43,0
51.087,-0.28,99.43,0
51.107,-0.28,99.43,0
51.127,-0.53,99.43,0
51.147,-0.53,99.55,0
51.167,-0.65,99.43,0
51.187,-0.16,99.43,0
51.207,-0.04,99.43,0
51.227,,,
51.247,-0.16,99.43,0
51.267,-0.04,99.43,0
51.287,0.09,99.43,0
51.307,-0.53,99.43,0
51.327,-2.72,99.43,0
51.347,-4.56,99.43,0
51.367,-6.15,99.43,0
51.387,-8.59,99.43,0
51.407,-9.93,99.43,0
51.427,-10.42,99.43,0
51.447,-10.79,99.43,0
51.467,,,
51.487,-10.91,99.43,0
51.507,-11.03,99.43,0
51.527,-11.16,99.43,0
51.547,-11.28,99.55,0
51.567,-11.28,99.43,0
51.587,-11.28,99.43,0
51.607,-11.4,99.43,0
51.63,-11.4,99.43,0
51.65,-11.28,99.43,0
51.675,-11.28,99.43,1
51.696,,,
51.71,-11.4,99.43,1
51.73,-11.4,99.43,1
51.75,-11.4,99.43,1
51.77,-11.4,99.43,1
51.79,-11.4,99.43,1
51.81,,,
51.83,-11.4,99.43,1
51.85,-11.4,99.43,1
51.87,-11.4,99.43,1
51.89,-11.4,99.43,1
51.91,-11.4,99.43,1
51.93,-11.4,99.43,1
51.95,-11.52,99.43,1
51.974,-11.52,99.43,1
51.994,-11.16,99.43,1
52.019,-10.67,99.43,1
52.04,,,
52.06,-10.06,99.43,1
52.08,-8.96,99.43,1
52.1,-7.0,99.43,1
52.12,-5.66,99.43,1
52.14,-4.8,99.43,1
52.16,-4.07,99.43,1
52.18,-3.34,99.43,1
52.2,-2.97,99.43,1
52.22,-2.6,99.43,1
52.24,-2.36,99.43,1
52.261,-1.63,99.43,1
52.281,,,
52.3,-1.38,99.43,1
52.32,-1.38,99.43,1
52.34,-1.26,99.43,0
52.36,-1.14,99.43,0
52.38,-0.77,99.43,0
52.403,-0.89,99.43,0
52.42,-0.77,99.43,0
52.44,-0.89,99.43,0
52.46,-0.65,99.43,0
52.48,,,
52.5,-0.16,99.43,0
52.52,-0.4,99.55,0
52.54,-0.53,99.43,0
52.56,-0.65,99.43,0
52.58,-0.28,99.43,0
52.6,-0.16,99.43,0
52.62,-0.28,99.43,0
52.64,-0.28,99.43,0
52.66,-0.28,99.43,0
52.68,-1.38,99.55,0
52.7,-3.58,99.43,0
52.72,-5.17,99.43,0
52.74,,,
52.76,-7.25,99.43,0
52.78,-9.32,99.43,0
52.8,-10.18,99.43,0
52.82,-10.67,99.43,0
52.84,-10.79,99.43,0
52.86,-11.03,99.43,0
52.88,-11.16,99.43,0
52.9,-11.28,99.43,0
52.924,-11.16,99.55,0
52.945,,,
52.96,-11.28,99.55,0
52.98,-11.28,99.43,0
53.0,-11.4,99.43,0
53.02,-11.28,99.43,0
53.04,-11.28,99.43,0
53.06,,,
53.08,-11.4,99.43,1
53.1,-11.4,99.43,1
53.12,-11.4,99.43,1
53.14,-11.4,99.43,1
53.16,-11.4,99.43,1
53.18,-11.4,99.43,1
53.2,-11.4,99.43,1
53.22,,,
53.241,-11.4,99.43,1
53.261,-11.4,99.43,1
53.281,-11.4,99.43,1
53.301,-11.4,99.43,1
53.321,-11.4,99.43,1
53.341,-11.4,99.43,1
53.361,-11.4,99.43,1
53.383,-10.91,99.43,1
53.403,-10.3,99.55,1
53.428,-9.45,99.43,1
53.449,-7.73,99.43,1
53.469,,,
53.481,-6.02,99.43,1
53.501,-5.05,99.43,1
53.521,-4.44,99.43,1
53.541,-3.7,99.43,1
53.561,-2.97,99.43,1
53.581,-2.6,99.43,1
53.601,,,
53.621,-2.24,99.43,1
53.641,-2.24,99.43,1
53.646,-1.75,99.43,1
53.67,-1.5,99.43,1
53.69,-1.26,99.43,1
53.71,-1.14,99.43,0
53.735,-1.26,99.43,0
53.756,-0.89,99.43,0
53.776,-1.01,99.43,0
53.801,-0.89,99.43,0
53.821,-0.77,99.43,0
53.842,-0.89,99.43,0
53.866,-0.53,99.43,0
53.887,-0.53,99.43,0
53.907,-0.65,99.43,0
53.932,-0.65,99.43,0
53.952,-0.65,99.43,0
53.973,,,
53.973,,,
53.986,-0.4,99.43,0
54.006,-0.28,99.43,0
54.026,-0.28,99.43,0
54.046,-0.53,99.43,0
54.066,-2.48,99.43,0
54.086,-4.44,99.43,0
54.106,,,
54.126,-6.02,99.43,0
54.146,-8.35,99.43,0
54.166,-9.69,99.43,0
54.186,-10.42,99.43,0
54.206,-10.67,99.43,0
54.226,-10.79,99.55,0
54.246,-11.03,99.43,0
54.266,-11.03,99.43,0
54.286,,,
54.306,-11.16,99.43,0
54.326,-11.16,99.43,0
54.346,-11.28,99.43,0
54.366,-11.28,99.43,0
54.386,-11.28,99.43,0
54.406,-11.16,99.43,0
54.426,-11.28,99.43,0
54.446,,,
54.466,-11.4,99.43,1
54.486,-11.4,99.43,1
54.506,-11.4,99.43,1
54.526,-11.4,99.43,1
54.546,-11.28,99.43,1
54.566,-11.4,99.43,1
54.586,-11.4,99.43,1
54.608,-11.4,99.43,1
54.628,-11.4,99.43,1
54.653,-11.4,99.43,1
54.673,,,
54.686,-11.4,99.43,1
54.706,-11.4,99.43,1
54.726,-11.4,99.43,1
54.746,-11.16,99.43,1
54.767,-10.67,99.43,1
54.788,,,
54.806,-10.06,99.43,1
54.826,-8.47,99.43,1
54.847,-6.63,99.43,1
54.867,-5.41,99.43,1
54.887,-4.56,99.43,1
54.907,-4.07,99.43,1
54.927,-3.34,99.43,1
54.947,-2.85,99.43,1
54.967,,,
54.987,-2.48,99.55,1
55.007,-2.24,99.43,1
55.027,-2.11,99.43,1
55.047,-1.63,99.43,1
55.067,-1.38,99.55,1
55.087,-1.26,99.43,0
55.107,-1.14,99.43,0
55.127,-1.14,99.43,0
55.147,-1.01,99.43,0
55.167,-0.89,99.43,0
55.187,-0.77,99.43,0
55.207,-0.77,99.43,0
55.227,,,
55.247,-0.65,99.43,0
55.267,-0.65,99.43,0
55.287,-0.65,99.43,0
55.307,-0.4,99.43,0
55.327,-0.65,99.43,0
55.347,-0.53,99.43,0
55.367,-0.28,99.43,0
55.387,-0.28,99.43,0
55.407,-0.04,99.43,0
55.427,-1.01,99.43,0
55.447,-3.09,99.43,0
55.468,-4.92,99.55,0
55.492,-6.88,99.43,0
55.512,-9.08,99.43,0
55.533,-10.06,99.43,0
55.558,-10.54,99.43,0
55.578,,,
55.587,-10.79,99.55,0
55.607,-10.91,99.43,0
55.627,-11.03,99.43,0
55.648,-11.16,99.55,0
55.672,-11.28,99.43,0
55.693,,,
55.708,-11.28,99.43,0
55.728,-11.28,99.43,0
55.748,-11.28,99.43,0
55.768,-11.28,99.55,0
55.788,-11.28,99.43,0
55.808,,,
55.828,-11.28,99.43,1
55.848,-11.4,99.43,1
55.868,-11.28,99.43,1
55.888,-11.4,99.43,1
55.908,-11.4,99.43,1
55.928,-11.4,99.43,1
55.948,-11.4,99.43,1
55.968,,,
55.988,-11.4,99.43,1
56.008,-11.4,99.43,1
56.028,-11.4,99.43,1
56.048,-11.4,99.43,1
56.062,-11.4,99.43,1
56.082,,,
56.102,-11.4,99.43,1
56.122,-11.4,99.43,1
56.142,-10.91,99.43,1
56.162,-10.3,99.43,1
56.182,-9.45,99.43,1
56.202,-7.73,99.43,1
56.222,-6.02,99.43,1
56.242,-5.05,99.43,1
56.262,-4.19,99.43,1
56.287,-3.82,99.43,1
56.308,-3.34,99.43,1
56.328,-2.85,99.43,1
56.352,-2.48,99.43,1
56.373,-1.99,99.43,1
56.393,-1.99,99.43,1
56.418,-1.75,99.43,1
56.438,-1.38,99.43,1
56.459,-1.01,99.43,0
56.487,-1.01,99.43,0
56.507,-1.14,99.55,0
56.527,,,
56.547,-1.01,99.43,0
56.567,-0.89,99.43,0
56.587,-0.53,99.55,0
56.607,-0.53,99.43,0
56.627,-0.89,99.43,0
56.647,-0.53,99.43,0
56.667,-0.53,99.43,0
56.687,-0.4,99.43,0
56.707,-0.65,99.43,0
56.727,-0.53,99.43,0
56.747,-0.28,99.43,0
56.767,-0.16,99.43,0
56.787,,,
56.807,-0.04,99.43,0
56.827,-1.87,99.43,0
56.847,-3.95,99.43,0
56.867,-5.54,99.43,0
56.887,-7.86,99.43,0
56.899,-9.57,99.43,0
56.919,,,
56.939,-10.18,99.43,0
56.959,-10.67,99.43,0
56.979,-10.79,99.43,0
56.999,-10.91,99.43,0
57.019,-11.16,99.43,0
57.039,-11.16,99.43,0
57.059,-11.28,99.43,0
57.081,-11.28,99.43,0
57.102,-11.28,99.43,0
57.127,-11.28,99.43,0
57.147,,,
57.159,-11.28,99.43,0
57.179,-11.28,99.43,0
57.199,-11.4,99.43,1
57.219,-11.28,99.43,1
57.241,-11.4,99.43,1
57.262,,,
57.279,-11.4,99.43,1
57.299,-11.4,99.43,1
57.319,-11.4,99.43,1
57.339,-11.4,99.43,1
57.359,-11.4,99.43,1
57.379,,,
57.399,-11.4,99.43,1
57.419,-11.4,99.43,1
57.439,-11.4,99.43,1
57.459,-11.4,99.43,1
57.479,-11.4,99.43,1
57.499,-11.28,99.55,1
57.519,-10.79,99.43,1
57.539,,,
57.559,-10.06,99.43,1
57.579,-8.83,99.43,1
57.599,-7.12,99.43,1
57.619,-5.54,99.43,1
57.639,-4.68,99.43,1
57.659,-3.95,99.43,1
57.679,-3.7,99.43,1
57.699,-3.34,99.43,1
57.719,-2.72,99.43,1
57.739,-2.24,99.43,1
57.759,-1.87,99.43,1
57.779,,,
57.799,-1.87,99.43,1
57.819,-1.75,99.43,1
57.839,-1.26,99.43,0
57.859,-1.01,99.43,0
57.879,-1.01,99.43,0
57.899,-1.26,99.43,0
57.919,-0.89,99.55,0
57.939,-0.77,99.43,0
57.959,-0.65,99.43,0
57.979,-0.65,99.43,0
57.999,-0.89,99.43,0
58.019,-0.53,99.43,0
58.04,,,
58.059,-0.53,99.43,0
58.08,-0.4,99.43,0
58.099,-0.53,99.43,0
58.11,-0.65,99.43,0
58.13,-0.16,99.43,0
58.151,-0.04,99.43,0
58.175,-0.53,99.43,0
58.196,-2.72,99.43,0
58.216,-4.68,99.43,0
58.241,-6.51,99.43,0
58.261,-8.59,99.43,0
58.282,-9.93,99.43,0
58.306,-10.42,99.43,0
58.327,-10.67,99.43,0
58.351,-10.91,99.43,0
58.372,,,
58.372,,,
58.39,-11.03,99.43,0
58.41,-11.03,99.43,0
58.43,-11.28,99.43,0
58.45,-11.28,99.43,0
58.47,-11.28,99.43,0
58.49,,,
58.511,-11.28,99.43,0
58.531,-11.28,99.43,0
58.551,-11.28,99.43,0
58.571,-11.28,99.43,0
58.591,-11.28,99.43,1
58.611,-11.28,99.43,1
58.631,-11.28,99.43,1
58.651,-11.4,99.43,1
58.671,-11.28,99.43,1
58.695,-11.4,99.55,1
58.716,,,
58.731,-11.4,99.55,1
58.751,-11.4,99.43,1
58.771,-11.4,99.43,1
58.791,-11.4,99.43,1
58.811,-11.4,99.43,1
58.831,,,
58.851,-11.4,99.43,1
58.871,-11.4,99.43,1
58.891,-11.03,99.55,1
58.911,-10.54,99.43,1
58.925,-9.81,99.43,1
58.945,-8.47,99.43,1
58.965,,,
58.985,-6.76,99.43,1
59.005,-5.41,99.43,1
59.025,-4.44,99.43,1
59.045,-3.82,99.43,1
59.065,-3.46,99.55,1
59.085,-3.21,99.43,1
59.105,-2.72,99.43,1
59.125,-1.99,99.43,1
59.145,-1.75,99.43,1
59.165,,,
59.185,-1.87,99.43,1
59.205,-1.63,99.43,1
59.225,-1.26,99.43,0
59.245,-0.89,99.43,0
59.265,-0.89,99.43,0
59.285,-1.26,99.43,0
59.305,-1.01,99.43,0
59.325,-0.65,99.55,0
59.345,-0.53,99.43,0
59.365,-0.53,99.43,0
59.385,-0.89,99.43,0
59.405,-0.53,99.43,0
59.425,,,
59.445,-0.53,99.43,0
59.465,-0.4,99.43,0
59.485,-0.53,99.43,0
59.505,-0.65,99.43,0
59.525,-0.16,99.43,0
59.545,-0.04,99.43,0
59.565,-1.14,99.43,0
59.585,-3.46,99.43,0
59.605,-5.17,99.43,0
59.625,-7.25,99.43,0
59.646,-9.08,99.43,0
59.666,-10.18,99.43,0
59.691,-10.54,99.55,0
59.711,,,
59.726,-10.79,99.43,0
59.746,-10.91,99.43,0
59.766,-11.03,99.43,0
59.786,-11.16,99.43,0
59.806,-11.16,99.43,0
59.826,,,
59.846,-11.28,99.43,0
59.866,-11.28,99.43,0
59.886,-11.28,99.43,0
59.906,-11.28,99.43,0
59.926,-11.28,99.43,0
59.946,-11.28,99.43,1
59.966,-11.28,99.43,1
59.989,-11.4,99.43,1
60.01,-11.28,99.43,1
60.034,-11.28,99.43,1
60.055,,,
60.066,-11.28,99.43,1
60.086,-11.4,99.43,1
60.106,-11.4,99.43,1
60.126,-11.4,99.43,1
60.149,-11.4,99.43,1
60.17,,,
60.186,-11.4,99.43,1
60.206,-11.4,99.43,1
60.226,-11.4,99.55,1
60.246,-11.28,99.43,1
60.266,-10.79,99.43,1
60.286,-10.18,99.43,1
60.309,-9.08,99.43,1
60.33,-7.25,99.43,1
60.354,-6.02,99.43,1
60.374,-4.8,99.43,1
60.395,-4.07,99.55,1
60.42,-3.46,99.43,1
60.44,-3.34,99.43,1
60.461,-3.09,99.43,1
60.485,-2.24,99.43,1
60.505,-1.87,99.43,1
60.526,-1.63,99.43,1
60.551,-1.87,99.43,1
60.571,-1.38,99.43,0
60.592,-0.89,99.43,0
60.616,-0.89,99.43,0
60.637,-1.01,99.43,0
60.657,,,
60.671,-1.14,99.43,0
60.691,-0.77,99.43,0
60.711,-0.53,99.43,0
60.731,-0.4,99.43,0
60.751,-0.53,99.43,0
60.771,-0.65,99.55,0
60.791,,,
60.811,-0.4,99.43,0
60.831,-0.16,99.43,0
60.851,-0.16,99.55,0
60.871,-0.4,99.43,0
60.891,-0.4,99.43,0
60.911,0.21,99.43,0
60.931,0.09,99.43,0
60.951,-1.75,99.43,0
60.971,-3.82,99.43,0
60.991,-5.41,99.43,0
61.011,-7.86,99.43,0
61.031,-9.32,99.43,0
61.051,-10.18,99.43,0
61.071,,,
61.091,-10.67,99.43,0
61.111,-10.91,99.43,0
61.131,-11.03,99.43,0
61.151,-11.16,99.43,0
61.171,-11.28,99.43,0
61.191,-11.28,99.43,0
61.211,-11.28,99.43,0
61.234,-11.28,99.43,0
61.255,-11.28,99.43,0
61.28,-11.4,99.43,0
61.3,,,
61.311,-11.4,99.43,0
61.331,-11.4,99.43,1
61.351,-11.4,99.43,1
61.37,-11.4,99.43,1
61.394,-11.4,99.43,1
61.415,,,
61.43,-11.4,99.43,1
61.45,-11.4,99.43,1
61.47,-11.4,99.43,1
61.49,-11.4,99.43,1
61.51,-11.4,99.43,1
61.53,,,
61.55,-11.4,99.43,1
61.57,-11.4,99.43,1
61.59,-11.52,99.43,1
61.61,-11.4,99.43,1
61.63,-11.28,99.43,1
61.65,-10.79,99.43,1
61.67,-10.06,99.43,1
61.693,-8.83,99.43,1
61.714,-6.88,99.43,1
61.734,-5.9,99.43,1
61.759,-4.68,99.43,1
61.78,-3.95,99.43,1
61.8,-3.34,99.43,1
61.824,-3.09,99.55,1
61.845,-2.97,99.43,1
61.865,-2.11,99.43,1
61.89,-1.75,99.43,1
61.911,-1.63,99.43,1
61.931,,,
61.94,-1.5,99.43,1
61.96,-1.38,99.43,0
61.98,-0.77,99.43,0
62.0,,,
62.02,-0.77,99.43,0
62.04,-0.77,99.43,0
62.06,-0.89,99.43,0
62.08,-0.53,99.43,0
62.1,-0.16,99.43,0
62.12,-0.16,99.43,0
62.14,-0.28,99.43,0
62.16,-0.53,99.43,0
62.181,-0.16,99.43,0
62.201,-0.04,99.43,0
62.221,-0.16,99.43,0
62.241,-0.4,99.43,0
62.261,,,
62.281,-0.28,99.43,0
62.301,0.21,99.43,0
62.321,-0.4,99.43,0
62.341,-2.48,99.43,0
62.361,-4.44,99.43,0
62.381,-6.27,99.43,0
62.401,-8.47,99.43,0
62.421,-9.69,99.43,0
62.441,-10.42,99.43,0
62.461,-10.79,99.43,0
62.481,-10.91,99.43,0
62.504,-11.03,99.43,0
62.525,-11.16,99.43,0
62.549,-11.28,99.43,0
62.57,,,
62.581,-11.28,99.43,0
62.595,-11.28,99.43,0
62.619,-11.28,99.43,0
62.64,-11.4,99.43,0
62.664,-11.4,99.43,0
62.684,,,
62.695,-11.4,99.43,0
62.715,-11.4,99.43,1
62.735,-11.4,99.43,1
62.755,-11.4,99.43,1
62.779,-11.4,99.43,1
62.799,,,
62.815,-11.4,99.43,1
62.835,-11.4,99.43,1
62.855,-11.4,99.43,1
62.875,-11.4,99.43,1
62.895,-11.4,99.43,1
62.915,,,
62.935,-11.4,99.43,1
62.955,-11.4,99.55,1
62.975,-11.4,99.43,1
62.995,-11.4,99.43,1
63.015,-11.16,99.43,1
63.035,-10.67,99.43,1
63.055,-9.93,99.43,1
63.075,-8.59,99.43,1
63.098,-6.76,99.43,1
63.119,-5.9,99.43,1
63.139,-4.68,99.43,1
63.164,-3.7,99.43,1
63.184,-3.21,99.55,1
63.205,,,
63.215,-2.97,99.43,1
63.235,-2.85,99.43,1
63.255,-2.11,99.43,1
63.275,-1.75,99.43,1
63.295,-1.5,99.43,1
63.315,-1.63,99.43,0
63.336,,,
63.355,-1.5,99.43,0
63.375,-0.89,99.43,0
63.396,-0.89,99.55,0
63.416,-1.01,99.43,0
63.436,-1.26,99.43,0
63.456,-0.89,99.43,0
63.476,-0.53,99.43,0
63.496,-0.53,99.43,0
63.516,-0.65,99.43,0
63.536,,,
63.556,-0.89,99.43,0
63.576,-0.65,99.43,0
63.596,-0.4,99.43,0
63.616,-0.53,99.43,0
63.636,-0.65,99.43,0
63.656,-0.77,99.43,0
63.676,-0.16,99.43,0
63.696,-1.5,99.43,0
63.716,-3.7,99.43,0
63.736,-5.29,99.43,0
63.756,-7.49,99.43,0
63.776,-9.32,99.43,0
63.796,,,
63.797,,,
63.817,-10.18,99.43,0
63.837,-10.67,99.55,0
63.857,-10.79,99.43,0
63.877,-10.91,99.43,0
63.897,-11.16,99.43,0
63.917,-11.16,99.43,0
63.937,-11.16,99.43,0
63.958,-11.16,99.43,0
63.979,-11.28,99.43,0
64.003,-11.28,99.43,0
64.024,,,
64.037,-11.28,99.43,0
64.057,-11.28,99.43,0
64.077,-11.28,99.43,0
64.097,-11.28,99.43,1
64.118,-11.4,99.43,1
64.139,,,
64.157,-11.28,99.43,1
64.177,-11.28,99.55,1
64.197,-11.28,99.43,1
64.217,-11.28,99.43,1
64.237,-11.28,99.43,1
64.257,-11.4,99.43,1
64.278,-11.4,99.43,1
64.299,,,
64.317,-11.4,99.43,1
64.337,-11.4,99.43,1
64.357,-11.4,99.43,1
64.377,-11.28,99.43,1
64.397,-10.79,99.43,1
64.417,-10.18,99.43,1
64.438,-9.08,99.43,1
64.458,,,
64.477,-7.12,99.43,1
64.497,-5.78,99.43,1
64.517,-4.92,99.43,1
64.537,-3.95,99.43,1
64.557,-3.46,99.43,1
64.577,-3.09,99.43,1
64.597,-2.72,99.43,1
64.614,-2.6,99.43,1
64.634,-1.75,99.43,1
64.655,,,
64.674,-1.63,99.43,1
64.694,-1.63,99.43,1
64.714,-1.63,99.55,0
64.734,-1.26,99.43,0
64.754,-1.01,99.43,0
64.774,-1.01,99.43,0
64.794,-1.14,99.43,0
64.814,-1.14,99.43,0
64.834,-0.89,99.43,0
64.855,-0.77,99.43,0
64.876,-0.77,99.43,0
64.896,-1.01,99.43,0
64.921,-1.01,99.43,0
64.941,-0.65,99.43,0
64.962,-0.53,99.43,0
64.986,-0.77,99.43,0
65.007,-0.65,99.43,0
65.028,-0.53,99.43,0
65.052,-0.65,99.43,0
65.072,-2.72,99.43,0
65.093,,,
65.108,-4.56,99.43,0
65.128,-6.15,99.43,0
65.148,-8.59,99.43,0
65.168,-9.81,99.43,0
65.188,-10.42,99.43,0
65.208,-10.67,99.43,0
65.228,-10.79,99.43,0
65.249,,,
65.268,-11.03,99.43,0
65.288,-11.16,99.43,0
65.308,-11.16,99.43,0
65.328,-11.16,99.43,0
65.348,-11.16,99.43,0
65.368,-11.28,99.43,0
65.388,-11.28,99.43,0
65.412,-11.28,99.43,0
65.433,-11.28,99.43,0
65.457,-11.28,99.43,1
65.478,,,
65.493,-11.28,99.43,1
65.513,-11.28,99.43,1
65.533,-11.28,99.43,1
65.553,-11.28,99.43,1
65.573,-11.28,99.43,1
65.593,,,
65.613,-11.28,99.43,1
65.633,-11.28,99.43,1
65.653,-11.4,99.43,1
65.673,-11.4,99.43,1
65.693,-11.4,99.43,1
65.713,-11.4,99.43,1
65.733,-11.28,99.43,1
65.753,,,
65.773,-11.16,99.43,1
65.793,-10.54,99.43,1
65.813,-9.81,99.43,1
65.834,-8.47,99.43,1
65.854,-6.76,99.43,1
65.874,-5.54,99.43,1
65.894,-4.68,99.55,1
65.914,-3.95,99.43,1
65.934,-3.34,99.43,1
65.954,-3.09,99.43,1
65.974,,,
65.994,-2.85,99.43,1
66.014,-2.48,99.43,1
66.034,-1.87,99.43,1
66.054,-1.63,99.43,1
66.074,-1.63,99.43,1
66.094,-1.75,99.43,0
66.114,-1.14,99.55,0
66.134,-1.01,99.43,0
66.154,-0.89,99.43,0
66.174,-1.14,99.43,0
66.195,-1.14,99.43,0
66.215,-0.77,99.43,0
66.237,,,
66.257,-0.65,99.43,0
66.277,-0.65,99.43,0
66.297,-0.89,99.43,0
66.317,-1.01,99.43,0
66.337,-0.53,99.55,0
66.357,-0.53,99.43,0
66.377,-0.53,99.43,0
66.397,-0.53,99.43,0
66.417,-0.4,99.43,0
66.437,-1.14,99.43,0
66.457,-3.21,99.55,0
66.477,-4.92,99.43,0
66.502,-6.76,99.43,0
66.522,-9.08,99.43,0
66.543,-10.06,99.43,0
66.567,-10.54,99.43,0
66.588,,,
66.597,-10.67,99.43,0
66.617,-10.79,99.55,0
66.637,-11.03,99.43,0
66.657,-11.16,99.43,0
66.682,-11.16,99.43,0
66.702,,,
66.717,-11.16,99.43,0
66.737,-11.16,99.43,0
66.757,-11.28,99.43,0
66.777,-11.28,99.43,0
66.797,-11.28,99.43,0
66.817,,,
66.837,-11.28,99.43,1
66.857,-11.28,99.43,1
66.877,-11.28,99.43,1
66.897,-11.28,99.43,1
66.917,-11.28,99.43,1
66.937,-11.28,99.43,1
66.957,-11.28,99.43,1
66.981,-11.28,99.43,1
67.001,-11.28,99.43,1
67.026,-11.4,99.43,1
67.047,,,
67.067,-11.4,99.43,1
67.087,-11.4,99.43,1
67.107,-11.4,99.43,1
67.127,-11.28,99.43,1
67.147,-10.91,99.43,1
67.167,-10.3,99.43,1
67.187,-9.45,99.43,1
67.207,-7.73,99.43,1
67.231,-6.15,99.43,1
67.251,-5.29,99.55,1
67.272,-4.56,99.43,1
67.297,-3.58,99.43,1
67.317,-3.09,99.43,1
67.337,,,
67.347,-2.85,99.43,1
67.367,-2.85,99.43,1
67.387,-2.48,99.43,1
67.407,-1.75,99.43,1
67.427,-1.63,99.43,1
67.448,-1.5,99.43,1
67.468,,,
67.488,-1.63,99.55,0
67.508,-1.26,99.43,0
67.528,-1.01,99.43,0
67.548,-1.14,99.43,0
67.568,-1.14,99.43,0
67.588,-1.38,99.43,0
67.608,-0.77,99.55,0
67.628,-0.65,99.55,0
67.648,-0.77,99.43,0
67.668,,,
67.688,-1.01,99.43,0
67.708,-1.01,99.43,0
67.728,-0.53,99.43,0
67.748,-0.53,99.43,0
67.768,-0.65,99.43,0
67.788,-0.65,99.43,0
67.808,-0.53,99.43,0
67.828,-1.87,99.43,0
67.848,-3.95,99.43,0
67.862,,,
67.882,-5.54,99.43,0
67.902,-7.86,99.43,0
67.922,-9.57,99.43,0
67.942,-10.18,99.43,0
67.962,-10.67,99.55,0
67.982,-10.67,99.43,0
68.002,-10.91,99.43,0
68.022,-11.16,99.43,0
68.042,,,
68.062,-11.16,99.43,0
68.082,-11.16,99.43,0
68.102,-11.16,99.43,0
68.122,-11.16,99.43,0
68.142,-11.28,99.43,0
68.162,-11.28,99.43,0
68.182,-11.28,99.43,0
68.206,-11.28,99.43,1
68.226,-11.28,99.43,1
68.251,-11.28,99.43,1
68.272,,,
68.292,-11.28,99.43,1
68.312,-11.28,99.43,1
68.332,-11.28,99.43,1
68.352,-11.28,99.43,1
68.372,-11.28,99.43,1
68.392,-11.28,99.55,1
68.412,-11.28,99.43,1
68.435,-11.28,99.43,1
68.455,-11.4,99.43,1
68.48,-11.4,99.43,1
68.501,,,
68.512,-11.16,99.43,1
68.532,-10.67,99.43,1
68.552,-10.06,99.43,1
68.572,-8.83,99.43,1
68.592,,,
68.612,-7.0,99.43,1
68.632,-5.78,99.43,1
68.652,-4.8,99.43,1
68.672,-4.44,99.43,1
68.692,-3.34,99.43,1
68.712,-2.97,99.43,1
68.732,-2.85,99.43,1
68.752,-2.6,99.43,1
68.772,-2.36,99.43,1
68.792,-1.63,99.55,1
68.812,-1.5,99.43,1
68.832,-1.38,99.43,0
68.853,,,
68.872,-1.5,99.43,0
68.892,-1.01,99.43,0
68.912,-1.01,99.43,0
68.932,-1.14,99.43,0
68.952,-1.14,99.43,0
68.972,-1.26,99.43,0
68.992,-0.65,99.43,0
69.012,-0.53,99.43,0
69.032,-0.77,99.55,0
69.054,-1.01,99.43,0
69.075,-0.89,99.55,0
69.095,-0.53,99.43,0
69.119,-0.4,99.43,0
69.139,-0.53,99.43,0
69.16,,,
69.175,-0.53,99.55,0
69.195,-0.89,99.55,0
69.215,-2.85,99.43,0
69.235,-4.68,99.43,0
69.255,-6.27,99.43,0
69.275,-8.59,99.43,0
69.295,,,
69.315,-9.81,99.43,0
69.335,-10.42,99.43,0
69.355,-10.67,99.43,0
69.375,-10.79,99.43,0
69.395,-11.03,99.43,0
69.415,-11.03,99.43,0
69.435,-11.16,99.43,0
69.455,-11.16,99.43,0
69.476,-11.28,99.43,0
69.496,,,
69.516,-11.16,99.43,0
69.536,-11.28,99.43,0
69.556,-11.16,99.43,0
69.576,-11.28,99.43,0
69.596,-11.28,99.43,1
69.616,-11.4,99.43,1
69.636,-11.28,99.43,1
69.66,-11.28,99.43,1
69.68,-11.4,99.43,1
69.705,-11.4,99.43,1
69.725,,,
69.736,-11.4,99.43,1
69.756,-11.28,99.43,1
69.776,-11.4,99.43,1
69.796,-11.4,99.43,1
69.82,-11.4,99.43,1
69.84,,,
69.856,-11.4,99.43,1
69.877,-11.4,99.43,1
69.897,-11.03,99.43,1
69.917,-10.54,99.43,1
69.937,-9.81,99.43,1
69.957,-8.59,99.43,1
69.977,,,
69.997,-6.76,99.43,1
70.017,-5.54,99.43,1
70.037,-4.68,99.43,1
70.057,-4.19,99.43,1
70.077,-3.34,99.43,1
70.097,-2.85,99.43,1
70.117,-2.6,99.43,1
70.137,-2.48,99.43,1
70.157,-2.24,99.43,1
70.177,-1.5,99.55,1
70.197,-1.38,99.43,1
70.217,-1.26,99.43,0
70.237,,,
70.257,-1.38,99.43,0
70.277,-1.14,99.43,0
70.297,-0.89,99.43,0
70.317,-0.89,99.43,0
70.337,-0.89,99.43,0
70.357,-1.14,99.43,0
70.377,-0.53,99.43,0
70.397,-0.53,99.43,0
70.417,-0.77,99.43,0
70.437,,,
70.457,-0.89,99.43,0
70.477,-1.01,99.43,0
70.497,-0.4,99.55,0
70.517,-0.53,99.43,0
70.537,-0.53,99.43,0
70.557,-0.53,99.43,0
70.577,-1.5,99.43,0
70.597,-3.58,99.43,0
70.617,-5.29,99.55,0
70.637,-7.12,99.43,0
70.657,-9.32,99.43,0
70.678,-10.18,99.43,0
70.7,-10.54,99.43,0
70.721,,,
70.738,-10.67,99.43,0
70.758,-11.03,99.43,0
70.778,-11.03,99.43,0
70.798,-11.16,99.43,0
70.818,-11.16,99.43,0
70.838,,,
70.858,-11.16,99.43,0
70.878,-11.28,99.43,0
70.898,-11.28,99.43,0
70.918,-11.16,99.43,0
70.938,-11.16,99.43,0
70.958,-11.28,99.43,0
70.978,-11.28,99.43,0
70.999,-11.28,99.43,1
71.02,-11.28,99.43,1
71.044,-11.28,99.43,1
71.065,,,
71.079,-11.28,99.43,1
71.099,-11.28,99.43,1
71.119,-11.28,99.43,1
71.139,-11.4,99.43,1
71.159,-11.4,99.43,1
71.179,,,
71.199,-11.4,99.43,1
71.219,-11.4,99.43,1
71.239,-11.28,99.43,1
71.259,-11.28,99.43,1
71.279,-10.79,99.43,1
71.299,-10.3,99.43,1
71.319,-9.32,99.43,1
71.339,-7.49,99.43,1
71.364,-5.9,99.43,1
71.384,-5.05,99.43,1
71.405,-4.31,99.43,1
71.429,-3.82,99.43,1
71.45,-3.09,99.43,1
71.47,,,
71.479,-2.72,99.55,1
71.499,-2.48,99.43,1
71.519,-2.36,99.43,1
71.539,,,
71.559,-1.99,99.43,1
71.579,-1.5,99.43,0
71.599,-1.38,99.43,0
71.619,-1.26,99.43,0
71.639,-1.5,99.43,0
71.659,-1.01,99.43,0
71.679,-0.89,99.43,0
71.699,-1.01,99.43,0
71.719,-1.01,99.43,0
71.739,-1.14,99.43,0
71.759,-0.77,99.43,0
71.779,-0.77,99.43,0
71.799,,,
71.819,-0.89,99.43,0
71.839,-0.89,99.43,0
71.859,-1.01,99.43,0
71.879,-0.4,99.43,0
71.899,-0.4,99.43,0
71.919,-0.53,99.43,0
71.939,-0.4,99.43,0
71.959,-2.24,99.43,0
71.979,-4.31,99.43,0
71.999,-5.9,99.43,0
72.019,-8.22,99.43,0
72.04,-9.69,99.43,0
72.06,,,
72.079,-10.3,99.43,0
72.099,-10.54,99.43,0
72.119,-10.79,99.43,0
72.139,-10.91,99.43,0
72.159,-11.03,99.43,0
72.179,-11.03,99.43,0
72.199,-11.16,99.43,0
72.224,-11.28,99.43,0
72.244,-11.28,99.43,0
72.268,-11.28,99.43,0
72.289,,,
72.309,-11.28,99.43,0
72.329,-11.28,99.43,0
72.349,-11.28,99.43,0
72.369,-11.28,99.43,1
72.389,-11.28,99.43,1
72.409,-11.4,99.43,1
72.429,-11.28,99.43,1
72.453,-11.28,99.43,1
72.473,-11.28,99.43,1
72.498,-11.28,99.43,1
72.519,,,
72.529,-11.4,99.43,1
72.549,-11.4,99.43,1
72.569,-11.4,99.43,1
72.589,-11.28,99.43,1
72.613,-11.4,99.55,1
72.633,,,
72.649,-11.16,99.55,1
72.669,-10.54,99.43,1
72.69,-9.93,99.43,1
72.71,-8.71,99.43,1
72.73,-6.88,99.43,1
72.75,-5.41,99.43,1
72.77,-4.68,99.43,1
72.79,-3.95,99.43,1
72.813,-3.7,99.43,1
72.834,-2.97,99.43,1
72.855,-2.48,99.43,1
72.879,-2.24,99.43,1
72.9,-2.11,99.43,1
72.92,-1.99,99.43,1
72.945,-1.38,99.43,0
72.965,-1.38,99.43,0
72.985,-1.26,99.43,0
73.01,-1.38,99.43,0
73.031,-1.26,99.43,0
73.051,,,
73.051,,,
73.07,-0.89,99.43,0
73.09,-1.01,99.55,0
73.096,-1.01,99.43,0
73.117,,,
73.136,-1.14,99.43,0
73.156,-0.77,99.43,0
73.176,-0.65,99.55,0
73.196,-0.89,99.55,0
73.216,-0.89,99.43,0
73.236,-0.89,99.43,0
73.256,-0.53,99.43,0
73.276,-0.53,99.43,0
73.296,-0.53,99.43,0
73.316,,,
73.336,-1.14,99.43,0
73.356,-3.09,99.43,0
73.376,-4.92,99.43,0
73.396,-6.63,99.43,0
73.416,-8.96,99.43,0
73.436,-9.81,99.43,0
73.456,-10.3,99.43,0
73.476,-10.67,99.43,0
73.497,-10.91,99.43,0
73.517,-11.03,99.43,0
73.539,-11.03,99.43,0
73.559,,,
73.577,-11.16,99.43,0
73.597,-11.16,99.43,0
73.617,-11.28,99.43,0
73.637,-11.28,99.43,0
73.657,-11.16,99.43,0
73.677,,,
73.697,-11.28,99.43,0
73.717,-11.28,99.43,0
73.737,-11.28,99.43,0
73.757,-11.28,99.43,1
73.777,-11.28,99.43,1
73.797,-11.28,99.43,1
73.817,-11.28,99.43,1
73.837,,,
73.857,-11.28,99.43,1
73.877,-11.28,99.43,1
73.897,-11.28,99.43,1
73.917,-11.4,99.43,1
73.937,-11.4,99.43,1
73.957,-11.4,99.43,1
73.977,-11.4,99.43,1
73.997,-11.4,99.43,1
74.018,-10.91,99.43,1
74.042,-10.42,99.43,1
74.063,,,
74.077,-9.69,99.43,1
74.097,-8.71,99.43,1
74.117,-7.0,99.43,1
74.137,-5.54,99.43,1
74.157,-4.68,99.43,1
74.177,-4.07,99.43,1
74.197,,,
74.217,-3.58,99.55,1
74.237,-3.21,99.43,1
74.257,-2.48,99.43,1
74.277,-2.36,99.43,1
74.298,-2.11,99.43,1
74.318,-1.99,99.43,1
74.338,-1.5,99.43,0
74.358,-1.26,99.43,0
74.378,-1.26,99.43,0
74.398,-1.26,99.43,0
74.418,-1.26,99.43,0
74.438,-0.89,99.43,0
74.46,-0.77,99.43,0
74.48,-0.89,99.43,0
74.501,-1.01,99.43,0
74.526,-0.89,99.43,0
74.546,-0.53,99.43,0
74.567,-0.77,99.43,0
74.591,-0.77,99.43,0
74.612,-0.89,99.43,0
74.632,,,
74.638,-0.53,99.43,0
74.658,-0.4,99.43,0
74.678,-0.4,99.43,0
74.698,,,
74.718,-1.63,99.43,0
74.738,-3.46,99.43,0
74.758,-5.17,99.43,0
74.778,-6.51,99.43,0
74.798,-8.71,99.43,0
74.818,-9.69,99.55,0
74.838,-10.3,99.43,0
74.858,-10.67,99.43,0
74.878,-10.91,99.43,0
74.898,-10.91,99.43,0
74.923,-11.03,99.43,0
74.943,,,
74.958,-11.16,99.43,0
74.978,-11.16,99.43,0
74.998,-11.28,99.43,0
75.018,-11.16,99.43,0
75.038,-11.16,99.43,0
75.058,,,
75.078,-11.28,99.43,0
75.099,-11.28,99.43,0
75.119,-11.28,99.43,1
75.139,-11.28,99.43,1
75.159,-11.28,99.43,1
75.179,-11.28,99.43,1
75.199,-11.28,99.43,1
75.219,,,
75.239,-11.28,99.43,1
75.259,-11.28,99.43,1
75.279,-11.28,99.43,1
75.299,-11.4,99.43,1
75.319,-11.4,99.43,1
75.339,-11.4,99.43,1
75.359,-11.4,99.43,1
75.382,-11.16,99.55,1
75.402,-10.79,99.43,1
75.427,-10.18,99.43,1
75.447,,,
75.459,-9.57,99.43,1
75.479,-8.35,99.43,1
75.499,-6.63,99.43,1
75.519,-5.41,99.43,1
75.539,-4.56,99.43,1
75.559,-3.95,99.43,1
75.579,,,
75.599,-3.7,99.43,1
75.619,-3.09,99.43,1
75.639,-2.48,99.43,1
75.659,-2.24,99.43,1
75.679,-2.11,99.43,1
75.699,-1.99,99.43,0
75.719,-1.5,99.43,0
75.739,-1.38,99.43,0
75.759,-1.26,99.43,0
75.779,-1.26,99.43,0
75.799,-1.38,99.43,0
75.82,-0.89,99.43,0
75.84,,,
75.859,-1.01,99.43,0
75.879,-0.89,99.43,0
75.9,-1.01,99.43,0
75.92,-0.89,99.43,0
75.94,-0.65,99.43,0
75.96,-0.77,99.43,0
75.98,-0.77,99.43,0
76.0,-0.89,99.43,0
76.02,-0.65,99.43,0
76.041,-0.28,99.55,0
76.062,-0.53,99.43,0
76.082,-2.36,99.43,0
76.107,-4.44,99.43,0
76.127,-5.9,99.43,0
76.147,-8.22,99.43,0
76.172,-9.45,99.43,0
76.192,-10.18,99.43,0
76.217,-10.67,99.43,0
76.238,-10.91,99.43,0
76.262,-11.03,99.43,0
76.283,,,
76.283,,,
76.3,-11.03,99.43,0
76.308,-11.16,99.43,0
76.328,,,
76.348,-11.16,99.43,0
76.368,-11.28,99.43,0
76.388,-11.16,99.43,0
76.408,-11.28,99.43,0
76.428,-11.28,99.43,0
76.448,-11.28,99.43,0
76.468,-11.28,99.43,0
76.492,-11.28,99.43,1
76.512,-11.28,99.43,1
76.537,-11.28,99.43,1
76.557,,,
76.568,-11.4,99.43,1
76.588,-11.28,99.55,1
76.608,-11.28,99.43,1
76.628,-11.4,99.43,1
76.651,-11.4,99.43,1
76.672,,,
76.688,-11.4,99.43,1
76.709,-11.4,99.55,1
76.729,-11.4,99.43,1
76.749,-11.4,99.43,1
76.769,-11.16,99.43,1
76.789,,,
76.809,-10.67,99.43,1
76.829,-9.93,99.43,1
76.849,-8.96,99.43,1
76.869,-7.25,99.43,1
76.889,-5.9,99.43,1
76.909,-4.68,99.43,1
76.929,-4.07,99.43,1
76.949,-3.58,99.43,1
76.969,-3.21,99.43,1
76.989,-2.85,99.43,1
77.009,-2.24,99.43,1
77.029,,,
77.049,-2.11,99.43,1
77.069,-1.99,99.43,1
77.089,-1.99,99.43,0
77.109,-1.63,99.43,0
77.129,-1.14,99.43,0
77.149,-1.26,99.43,0
77.169,-1.26,99.43,0
77.189,-1.26,99.43,0
77.209,-1.01,99.43,0
77.229,-0.89,99.43,0
77.249,-0.89,99.43,0
77.27,-1.01,99.43,0
77.29,,,
77.309,-0.89,99.43,0
77.329,-0.65,99.43,0
77.349,-0.77,99.43,0
77.369,-0.77,99.55,0
77.389,-0.89,99.43,0
77.409,-0.65,99.43,0
77.429,-0.4,99.43,0
77.449,-1.14,99.43,0
77.469,-3.21,99.43,0
77.491,-5.05,99.43,0
77.512,-6.88,99.43,0
77.532,-8.83,99.43,0
77.557,-9.93,99.43,0
77.577,-10.42,99.43,0
77.598,,,
77.612,-10.79,99.43,0
77.632,-10.91,99.43,0
77.652,-10.91,99.43,0
77.672,-11.16,99.43,0
77.692,-11.16,99.43,0
77.712,,,
77.732,-11.16,99.43,0
77.752,-11.16,99.43,0
77.772,-11.16,99.43,0
77.792,-11.28,99.43,0
77.812,-11.16,99.43,0
77.832,-11.28,99.43,0
77.852,-11.28,99.43,0
77.876,-11.28,99.43,1
77.896,-11.28,99.55,1
77.921,-11.28,99.43,1
77.941,,,
77.961,-11.28,99.43,1
77.981,-11.28,99.43,1
78.001,-11.28,99.43,1
78.021,-11.28,99.43,1
78.041,-11.28,99.43,1
78.061,-11.4,99.43,1
78.081,-11.28,99.43,1
78.105,-11.4,99.43,1
78.126,-11.4,99.43,1
78.15,-10.91,99.43,1
78.171,,,
78.181,-10.3,99.43,1
78.201,-9.45,99.55,1
78.221,-7.98,99.43,1
78.241,-6.39,99.43,1
78.261,-5.41,99.55,1
78.281,,,
78.301,-4.31,99.43,1
78.321,-3.7,99.43,1
78.341,-3.34,99.43,1
78.361,-3.09,99.43,1
78.381,-2.72,99.43,1
78.401,-2.11,99.43,1
78.421,-1.87,99.43,1
78.441,-1.75,99.43,0
78.461,-1.75,99.43,0
78.481,,,
78.501,-1.5,99.43,0
78.521,-1.14,99.43,0
78.541,-1.14,99.43,0
78.561,-1.14,99.43,0
78.581,-1.26,99.43,0
78.601,-1.01,99.43,0
78.621,-0.89,99.43,0
78.641,-0.77,99.43,0
78.661,-0.89,99.43,0
78.681,-0.89,99.43,0
78.701,-0.53,99.55,0
78.722,-0.77,99.43,0
78.742,,,
78.762,-0.77,99.43,0
78.782,-0.77,99.55,0
78.802,-0.65,99.43,0
78.822,-0.28,99.43,0
78.842,-1.75,99.43,0
78.862,-3.58,99.43,0
78.882,-5.29,99.43,0
78.902,-6.88,99.43,0
78.922,-8.83,99.43,0
78.942,-9.93,99.43,0
78.962,-10.42,99.43,0
78.982,,,
79.002,-10.79,99.43,0
79.022,-10.91,99.43,0
79.042,-11.03,99.43,0
79.062,-11.16,99.43,0
79.082,-11.28,99.43,0
79.102,-11.28,99.43,0
79.122,-11.28,99.55,0
79.146,-11.28,99.43,0
79.166,-11.28,99.43,0
79.19,-11.28,99.43,0
79.211,,,
79.226,-11.28,99.43,0
79.246,-11.28,99.43,1
79.266,-11.28,99.43,1
79.286,-11.4,99.43,1
79.306,-11.4,99.43,1
79.326,,,
79.346,-11.4,99.43,1
79.366,-11.4,99.43,1
79.386,-11.4,99.43,1
79.406,-11.4,99.43,1
79.426,-11.4,99.43,1
79.446,-11.4,99.43,1
79.466,-11.4,99.43,1
79.486,,,
79.506,-11.4,99.43,1
79.526,-11.28,99.43,1
79.546,-10.79,99.43,1
79.555,,,
79.575,-10.18,99.43,1
79.595,-9.32,99.43,1
79.615,-7.61,99.43,1
79.635,-6.02,99.43,1
79.655,-5.17,99.43,1
79.675,-4.07,99.43,1
79.695,-3.7,99.43,1
79.715,-3.21,99.43,1
79.735,-2.97,99.43,1
79.756,-2.6,99.43,1
79.776,-1.99,99.43,1
79.797,,,
79.815,-1.87,99.43,1
79.835,-1.75,99.43,0
79.855,-1.63,99.43,0
79.875,-1.38,99.55,0
79.895,-1.14,99.43,0
79.915,-1.01,99.43,0
79.935,-1.14,99.43,0
79.956,-1.14,99.43,0
79.976,-0.89,99.43,0
79.996,,,
80.016,-0.89,99.43,0
80.036,-0.65,99.43,0
80.056,-0.77,99.43,0
80.076,-0.77,99.43,0
80.096,-0.53,99.43,0
80.116,-0.77,99.43,0
80.136,-0.65,99.43,0
80.156,-0.53,99.43,0
80.176,-0.4,99.55,0
80.196,-0.53,99.43,0
80.216,-2.48,99.43,0
80.236,-4.44,99.43,0
80.256,,,
80.276,-5.9,99.43,0
80.296,-8.22,99.43,0
80.316,-9.69,99.43,0
80.336,-10.3,99.43,0
80.356,-10.67,99.55,0
80.376,-10.79,99.43,0
80.396,-11.03,99.43,0
80.416,-11.03,99.43,0
80.436,,,
80.456,-11.16,99.43,0
80.476,-11.28,99.43,0
80.496,-11.16,99.43,0
80.516,-11.16,99.43,0
80.536,-11.28,99.43,0
80.556,-11.28,99.43,0
80.576,-11.28,99.43,0
80.6,-11.28,99.43,0
80.62,-11.28,99.43,1
80.644,-11.28,99.43,1
80.665,,,
80.676,-11.28,99.55,1
80.696,-11.28,99.43,1
80.716,-11.28,99.43,1
80.736,-11.28,99.43,1
80.76,-11.28,99.43,1
80.78,,,
80.8,-11.4,99.43,1
80.82,-11.4,99.43,1
80.84,-11.4,99.43,1
80.86,-11.4,99.43,1
80.88,-11.4,99.43,1
80.9,-11.16,99.43,1
80.92,-10.67,99.43,1
80.94,,,
80.96,-9.93,99.43,1
80.98,-8.59,99.43,1
81.0,-6.88,99.43,1
81.02,-5.54,99.43,1
81.04,-4.68,99.43,1
81.06,-3.82,99.43,1
81.08,-3.46,99.43,1
81.1,-3.09,99.43,1
81.12,-2.72,99.43,1
81.14,-2.36,99.43,1
81.161,-1.87,99.43,1
81.181,-1.75,99.43,1
81.206,-1.63,99.43,0
81.227,-1.5,99.43,0
81.247,-1.01,99.43,0
81.271,-1.01,99.43,0
81.292,-1.01,99.43,0
81.312,-1.01,99.43,0
81.337,-0.89,99.43,0
81.358,-0.65,99.43,0
81.378,,,
81.381,,,
81.401,-0.77,99.43,0
81.421,-0.77,99.43,0
81.441,-0.89,99.43,0
81.461,-0.65,99.43,0
81.481,-0.53,99.43,0
81.501,-0.53,99.43,0
81.521,-0.65,99.43,0
81.541,-0.4,99.43,0
81.562,-0.28,99.43,0
81.582,-1.26,99.43,0
81.602,-3.34,99.43,0
81.622,-5.05,99.43,0
81.642,,,
81.662,-6.88,99.43,0
81.682,-9.08,99.55,0
81.702,-10.06,99.43,0
81.722,-10.54,99.43,0
81.742,-10.79,99.43,0
81.762,-10.91,99.43,0
81.782,-11.03,99.43,0
81.802,-11.16,99.43,0
81.824,-11.28,99.43,0
81.845,-11.16,99.43,0
81.87,-11.16,99.43,0
81.89,,,
81.902,-11.28,99.43,0
81.922,-11.28,99.43,0
81.942,-11.28,99.55,0
81.962,-11.28,99.43,0
81.984,-11.28,99.43,1
82.005,,,
82.022,-11.28,99.43,1
82.042,-11.28,99.43,1
82.062,-11.28,99.43,1
82.082,-11.28,99.43,1
82.102,-11.28,99.43,1
82.122,,,
82.142,-11.4,99.43,1
82.162,-11.28,99.43,1
82.182,-11.4,99.43,1
82.202,-11.4,99.55,1
82.222,-11.4,99.43,1
82.242,-11.4,99.43,1
82.262,-11.28,99.43,1
82.282,,,
82.302,-10.91,99.43,1
82.322,-10.3,99.43,1
82.342,-9.45,99.43,1
82.363,-7.73,99.55,1
82.383,-6.39,99.43,1
82.403,-5.29,99.43,1
82.423,-4.44,99.43,1
82.443,-3.7,99.43,1
82.463,-3.21,99.43,1
82.483,-2.85,99.55,1
82.503,,,
82.523,-2.6,99.43,1
82.543,-2.24,99.43,1
82.563,-1.99,99.43,1
82.583,-1.63,99.55,1
82.603,-1.63,99.43,1
82.623,-1.5,99.43,0
82.643,-1.14,99.43,0
82.663,-1.14,99.43,0
82.683,-1.14,99.43,0
82.703,-1.14,99.43,0
82.723,-1.14,99.43,0
82.743,-0.77,99.43,0
82.763,,,
82.763,,,
82.783,-0.89,99.43,0
82.803,-0.89,99.43,0
82.823,-0.89,99.43,0
82.843,-0.77,99.43,0
82.863,-0.65,99.43,0
82.883,-0.65,99.43,0
82.903,-0.53,99.43,0
82.923,-0.4,99.43,0
82.943,-0.4,99.43,0
82.963,-1.99,99.43,0
82.983,-3.95,99.43,0
83.004,-5.54,99.55,0
83.028,-7.86,99.55,0
83.049,-9.32,99.43,0
83.07,-10.18,99.43,0
83.094,-10.54,99.43,0
83.115,,,
83.123,-10.79,99.43,0
83.143,-10.91,99.43,0
83.164,-11.03,99.43,0
83.184,-11.16,99.43,0
83.209,-11.16,99.43,0
83.229,,,
83.244,-11.28,99.43,0
83.264,-11.16,99.43,0
83.284,-11.28,99.43,0
83.304,-11.28,99.43,0
83.324,-11.28,99.43,0
83.344,,,
83.364,-11.28,99.43,0
83.384,-11.28,99.43,1
83.404,-11.28,99.43,1
83.424,-11.4,99.43,1
83.444,-11.4,99.43,1
83.464,-11.28,99.43,1
83.484,-11.4,99.43,1
83.508,-11.4,99.43,1
83.528,-11.4,99.43,1
83.553,-11.4,99.43,1
83.574,,,
83.594,-11.4,99.43,1
83.614,-11.4,99.43,1
83.634,-11.4,99.43,1
83.654,-11.16,99.43,1
83.674,-10.67,99.43,1
83.694,-10.06,99.43,1
83.714,-8.83,99.43,1
83.734,-7.0,99.43,1
83.758,-5.78,99.43,1
83.778,-4.68,99.43,1
83.799,-4.19,99.43,1
83.823,-3.46,99.43,1
83.844,-3.09,99.43,1
83.864,-2.6,99.55,1
83.889,-2.48,99.43,1
83.909,-2.11,99.43,1
83.93,,,
83.934,-1.87,99.43,1
83.954,-1.75,99.43,0
83.975,-1.38,99.43,0
83.995,,,
84.015,-1.5,99.43,0
84.035,-1.14,99.43,0
84.055,-1.14,99.43,0
84.075,-1.14,99.55,0
84.095,-0.89,99.43,0
84.115,-1.14,99.43,0
84.135,-0.89,99.43,0
84.155,-0.89,99.43,0
84.175,-0.89,99.43,0
84.195,,,
84.215,-0.89,99.43,0
84.235,-0.89,99.43,0
84.255,-0.77,99.43,0
84.275,-0.77,99.43,0
84.295,-0.65,99.43,0
84.315,-0.4,99.43,0
84.335,-1.01,99.43,0
84.355,-2.97,99.43,0
84.376,-4.92,99.43,0
84.396,-6.39,99.43,0
84.416,-8.71,99.43,0
84.436,-9.81,99.43,0
84.456,,,
84.476,-10.42,99.43,0
84.496,-10.67,99.43,0
84.516,-10.91,99.43,0
84.536,-10.91,99.43,0
84.556,-11.16,99.43,0
84.576,-11.16,99.43,0
84.596,-11.16,99.43,0
84.618,-11.16,99.43,0
84.639,-11.16,99.43,0
84.662,-11.28,99.43,0
84.683,,,
84.696,-11.16,99.43,0
84.716,-11.28,99.43,0
84.736,-11.28,99.43,1
84.756,-11.28,99.43,1
84.778,-11.28,99.43,1
84.798,,,
84.818,-11.28,99.43,1
84.838,-11.28,99.43,1
84.858,-11.28,99.43,1
84.878,-11.28,99.55,1
84.898,-11.28,99.43,1
84.918,-11.4,99.43,1
84.938,-11.28,99.43,1
84.958,,,
84.978,-11.4,99.43,1
84.998,-11.4,99.43,1
85.018,-11.4,99.43,1
85.038,-10.91,99.55,1
85.058,-10.42,99.43,1
85.078,-9.69,99.43,1
85.098,-8.1,99.43,1
85.118,-6.51,99.43,1
85.138,,,
85.158,-5.41,99.43,1
85.179,-4.44,99.43,1
85.199,-3.95,99.43,1
85.219,-3.34,99.43,1
85.239,-2.97,99.43,1
85.259,-2.6,99.43,1
85.279,-2.36,99.55,1
85.299,-2.11,99.43,1
85.319,-1.75,99.43,1
85.339,-1.75,99.43,0
85.359,-1.26,99.43,0
85.379,-1.38,99.43,0
85.404,-1.14,99.43,0
85.425,-0.89,99.43,0
85.445,-1.01,99.43,0
85.47,-0.89,99.43,0
85.49,-1.01,99.43,0
85.511,,,
85.519,-0.77,99.43,0
85.539,-0.77,99.43,0
85.559,-0.77,99.43,0
85.579,,,
85.599,-0.77,99.43,0
85.619,-0.77,99.43,0
85.639,-0.65,99.43,0
85.659,-0.53,99.43,0
85.679,-0.4,99.43,0
85.699,-0.4,99.43,0
85.719,-1.63,99.43,1
85.739,-3.7,99.43,0
85.759,-5.29,99.43,0
85.779,-6.51,99.43,0
85.799,-8.71,99.43,0
85.819,-9.93,99.43,0
85.839,,,
85.859,-10.42,99.43,0
85.879,-10.67,99.43,0
85.899,-10.91,99.43,0
85.919,-11.03,99.43,0
85.939,-11.16,99.43,0
85.959,-11.16,99.43,0
85.98,-11.16,99.43,0
86.002,-11.16,99.43,0
86.022,-11.28,99.43,0
86.047,-11.28,99.43,0
86.068,,,
86.08,-11.28,99.43,0
86.1,-11.28,99.55,0
86.12,-11.28,99.43,1
86.14,-11.28,99.43,1
86.162,-11.28,99.43,1
86.182,,,
86.2,-11.28,99.43,1
86.22,-11.28,99.43,1
86.24,-11.28,99.43,1
86.26,-11.28,99.43,1
86.28,-11.28,99.43,1
86.3,,,
86.32,-11.28,99.43,1
86.34,-11.4,99.43,1
86.36,-11.4,99.43,1
86.38,-11.4,99.43,1
86.392,-11.28,99.55,1
86.412,-10.91,99.55,1
86.436,-10.18,99.43,1
86.457,,,
86.472,-9.2,99.43,1
86.492,-7.37,99.43,1
86.512,-6.15,99.43,1
86.532,-4.92,99.43,1
86.552,-4.31,99.43,1
86.572,-3.7,99.55,1
86.592,-3.09,99.55,1
86.612,-2.85,99.43,1
86.633,-2.36,99.43,1
86.653,,,
86.672,-2.24,99.43,1
86.692,-1.99,99.43,1
86.712,-1.75,99.43,1
86.732,-1.5,99.43,0
86.752,-1.26,99.43,0
86.772,-1.38,99.43,0
86.793,-1.14,99.43,0
86.813,-1.14,99.43,0
86.833,-1.01,99.43,0
86.854,-1.01,99.43,0
86.874,-1.01,99.43,0
86.895,-0.77,99.43,0
86.92,-0.89,99.43,0
86.94,-0.77,99.43,0
86.961,-0.77,99.43,0
86.985,-0.77,99.43,0
87.006,-0.65,99.43,0
87.026,-0.65,99.43,0
87.051,-0.4,99.43,0
87.071,-0.53,99.43,0
87.092,,,
87.093,,,
87.113,-2.36,99.43,0
87.133,-4.31,99.43,0
87.153,-5.78,99.43,0
87.173,-7.98,99.43,0
87.193,-9.45,99.43,0
87.213,-10.3,99.43,0
87.233,-10.54,99.43,0
87.253,-10.79,99.43,0
87.273,-11.03,99.43,0
87.293,,,
87.313,-11.03,99.43,0
87.333,-11.16,99.43,0
87.353,-11.16,99.43,0
87.373,-11.28,99.43,0
87.393,-11.28,99.43,0
87.413,-11.28,99.43,0
87.433,-11.28,99.43,0
87.456,-11.28,99.43,0
87.476,-11.28,99.55,1
87.501,-11.28,99.43,1
87.522,,,
87.533,-11.28,99.43,1
87.553,-11.4,99.43,1
87.573,-11.4,99.43,1
87.594,-11.28,99.43,1
87.616,-11.28,99.43,1
87.636,,,
87.654,-11.4,99.43,1
87.674,-11.4,99.43,1
87.694,-11.4,99.43,1
87.714,-11.4,99.43,1
87.734,-11.4,99.43,1
87.754,-11.4,99.43,1
87.776,-11.16,99.43,1
87.797,,,
87.814,-10.67,99.43,1
87.834,-9.93,99.43,1
87.854,-8.71,99.43,1
87.874,-6.88,99.43,1
87.894,-5.66,99.43,1
87.914,-4.56,99.43,1
87.934,-4.07,99.43,1
87.954,-3.7,99.43,1
87.974,,,
87.994,-2.97,99.43,1
87.997,-2.6,99.55,1
88.017,-2.11,99.43,1
88.038,,,
88.057,-2.11,99.43,1
88.077,-1.99,99.55,1
88.097,-1.63,99.43,1
88.117,-1.26,99.43,0
88.137,-1.01,99.55,0
88.157,-1.14,99.43,0
88.177,-1.14,99.43,0
88.197,-0.89,99.43,0
88.217,-0.77,99.55,0
88.237,,,
88.257,-0.89,99.43,0
88.277,-1.01,99.43,0
88.297,-0.89,99.43,0
88.317,-0.77,99.43,0
88.337,-0.65,99.43,0
88.357,-0.77,99.43,0
88.377,-0.89,99.43,0
88.397,-0.65,99.43,0
88.417,-0.4,99.43,0
88.437,-0.4,99.43,0
88.457,-1.01,99.43,0
88.477,-3.09,99.43,0
88.5,-4.92,99.43,0
88.521,-6.51,99.43,0
88.541,-8.71,99.43,0
88.566,-10.06,99.43,0
88.586,-10.42,99.43,0
88.611,-10.79,99.43,0
88.632,,,
88.637,-10.91,99.43,0
88.657,-11.03,99.43,0
88.681,-11.16,99.43,0
88.701,-11.16,99.43,0
88.726,-11.28,99.43,0
88.746,,,
88.757,-11.16,99.43,0
88.777,-11.28,99.43,0
88.798,-11.28,99.43,0
88.818,-11.28,99.43,0
88.84,-11.28,99.43,0
88.861,,,
88.878,-11.28,99.43,1
88.898,-11.28,99.43,1
88.918,-11.28,99.43,1
88.938,-11.28,99.43,1
88.958,-11.28,99.43,1
88.978,,,
88.998,-11.28,99.43,1
89.018,-11.28,99.43,1
89.038,-11.28,99.43,1
89.058,-11.4,99.43,1
89.078,-11.4,99.43,1
89.098,-11.4,99.43,1
89.118,-11.4,99.43,1
89.138,,,
89.158,-11.4,99.43,1
89.178,-11.03,99.43,1
89.198,-10.42,99.43,1
89.218,-9.57,99.43,1
89.238,-7.98,99.43,1
89.258,-6.39,99.43,1
89.278,-5.17,99.43,1
89.298,-4.19,99.43,1
89.318,-3.7,99.43,1
89.338,,,
89.358,-3.58,99.43,1
89.378,-2.97,99.43,1
89.398,-2.36,99.43,1
89.418,-1.99,99.43,1
89.438,-1.99,99.55,1
89.458,-1.87,99.43,1
89.478,-1.5,99.43,0
89.498,-1.14,99.43,0
89.518,-1.14,99.55,0
89.538,-1.26,99.43,0
89.558,-1.14,99.43,0
89.578,-1.01,99.43,0
89.598,,,
89.618,-0.77,99.43,0
89.638,-0.77,99.43,0
89.658,-1.01,99.43,0
89.678,-0.89,99.43,0
89.698,-0.77,99.43,0
89.718,-0.53,99.43,0
89.738,-0.65,99.55,0
89.759,-0.77,99.43,0
89.778,-0.53,99.43,0
89.798,,,
89.818,-0.28,99.43,0
89.838,-0.4,99.43,0
89.858,-1.87,99.43,0
89.878,-3.82,99.43,0
89.898,-5.41,99.43,0
89.918,-7.49,99.43,0
89.938,-9.32,99.43,0
89.958,-10.18,99.43,0
89.978,-10.67,99.43,0
89.998,-10.91,99.43,0
90.02,-10.91,99.43,0
90.04,-11.16,99.43,0
90.065,-11.16,99.43,0
90.085,,,
90.1,-11.16,99.43,0
90.12,-11.28,99.43,0
90.14,-11.16,99.43,0
90.16,-11.28,99.43,0
90.18,-11.28,99.43,0
90.2,,,
90.22,-11.28,99.43,0
90.24,-11.28,99.43,0
90.26,-11.28,99.43,1
90.28,-11.28,99.43,1
90.3,-11.28,99.43,1
90.32,-11.28,99.43,1
90.34,-11.28,99.43,1
90.36,,,
90.38,-11.28,99.43,1
90.4,-11.28,99.43,1
90.42,-11.28,99.43,1
90.44,-11.28,99.43,1
90.46,-11.4,99.43,1
90.48,-11.4,99.43,1
90.5,-11.4,99.43,1
90.524,-11.28,99.43,1
90.544,-10.79,99.43,1
90.569,-10.06,99.43,1
90.589,,,
90.6,-8.96,99.43,1
90.62,-7.25,99.43,1
90.64,-5.78,99.43,1
90.66,-4.8,99.55,1
90.68,-4.07,99.43,1
90.7,-3.7,99.43,1
90.72,,,
90.74,-3.34,99.43,1
90.76,-2.85,99.43,1
90.78,-2.24,99.43,1
90.8,-1.99,99.43,1
90.821,-2.11,99.43,1
90.841,-1.99,99.43,1
90.861,-1.63,99.43,0
90.881,-1.14,99.43,0
90.901,-1.14,99.43,0
90.921,-1.5,99.43,0
90.941,-1.26,99.43,0
90.962,-1.01,99.43,0
90.987,-0.89,99.43,0
91.007,-0.89,99.43,0
91.028,-1.14,99.55,0
91.052,-0.89,99.43,0
91.073,-0.77,99.43,0
91.093,-0.65,99.43,0
91.118,-0.89,99.43,0
91.138,-0.89,99.43,0
91.159,-0.53,99.55,0
91.183,-0.4,99.43,0
91.204,-0.77,99.43,0
91.225,,,
91.245,-2.72,99.43,0
91.265,-4.56,99.43,0
91.285,-6.02,99.43,0
91.305,-8.35,99.43,0
91.325,-9.69,99.43,0
91.345,-10.3,99.43,0
91.365,-10.67,99.43,0
91.385,-10.91,99.43,0
91.405,-11.03,99.43,0
91.425,,,
91.445,-11.03,99.43,0
91.465,-11.16,99.43,0
91.485,-11.16,99.55,0
91.505,-11.16,99.43,0
91.525,-11.16,99.43,0
91.545,-11.16,99.43,0
91.565,-11.28,99.43,0
91.589,-11.28,99.43,0
91.609,-11.28,99.43,1
91.634,-11.28,99.43,1
91.654,,,
91.674,-11.28,99.43,1
91.694,-11.28,99.43,1
91.714,-11.28,99.43,1
91.734,-11.28,99.43,1
91.754,-11.28,99.43,1
91.774,-11.4,99.43,1
91.794,-11.28,99.55,1
91.814,,,
91.834,-11.28,99.43,1
91.854,-11.4,99.43,1
91.874,-11.4,99.43,1
91.894,-11.4,99.43,1
91.914,-11.03,99.43,1
91.934,-10.54,99.43,1
91.954,-9.93,99.43,1
91.974,,,
91.994,-9.2,99.43,1
92.014,-7.61,99.43,1
92.035,-6.27,99.43,1
92.055,-5.17,99.43,1
92.075,-4.19,99.43,1
92.095,-3.58,99.43,1
92.115,-3.34,99.43,1
92.135,-3.09,99.43,1
92.155,-2.48,99.43,1
92.175,-1.99,99.43,1
92.195,-1.87,99.43,1
92.216,-1.87,99.43,1
92.236,,,
92.255,-1.87,99.43,0
92.275,-1.26,99.43,0
92.295,-1.01,99.43,0
92.315,-1.01,99.43,0
92.335,-1.38,99.43,0
92.355,-1.26,99.43,0
92.375,-0.89,99.43,0
92.395,-0.89,99.43,0
92.415,-0.89,99.43,0
92.435,,,
92.435,,,
92.455,-1.14,99.43,0
92.475,-0.89,99.43,0
92.495,-0.77,99.43,0
92.515,-0.77,99.55,0
92.535,-1.01,99.43,0
92.555,-0.89,99.43,0
92.575,-0.4,99.43,0
92.595,-1.38,99.43,0
92.615,-3.34,99.43,0
92.635,-5.05,99.43,0
92.655,-7.12,99.43,0
92.675,-9.08,99.43,0
92.698,-10.06,99.43,0
92.719,-10.54,99.43,0
92.744,-10.67,99.43,0
92.764,,,
92.775,-10.91,99.43,0
92.795,-11.03,99.43,0
92.815,-11.16,99.43,0
92.836,-11.16,99.43,0
92.858,-11.16,99.43,0
92.879,,,
92.896,-11.16,99.43,0
92.916,-11.28,99.43,0
92.936,-11.16,99.43,0
92.956,-11.28,99.43,0
92.976,-11.28,99.43,0
92.996,,,
93.016,-11.28,99.43,0
93.036,-11.28,99.55,1
93.056,-11.28,99.43,1
93.076,-11.28,99.43,1
93.096,-11.28,99.43,1
93.116,-11.28,99.43,1
93.136,-11.28,99.55,1
93.156,,,
93.176,-11.28,99.43,1
93.196,-11.28,99.43,1
93.216,-11.4,99.43,1
93.236,-11.4,99.43,1
93.256,-11.4,99.43,1
93.276,-11.28,99.43,1
93.296,-10.91,99.43,1
93.317,-10.18,99.43,1
93.338,-9.32,99.55,1
93.364,-7.61,99.55,1
93.383,-6.15,99.43,1
93.403,-5.29,99.43,1
93.428,-4.19,99.43,1
93.448,-3.58,99.43,1
93.469,,,
93.476,-3.09,99.43,1
93.496,-2.97,99.43,1
93.516,-2.72,99.43,1
93.536,,,
93.556,-2.11,99.43,1
93.576,-1.87,99.43,1
93.596,-1.75,99.43,0
93.616,-1.87,99.43,0
93.636,-1.75,99.43,0
93.646,-1.14,99.43,0
93.666,,,
93.686,-1.14,99.43,0
93.706,-1.14,99.43,0
93.726,-1.38,99.43,0
93.746,-0.89,99.43,0
93.766,-0.89,99.43,0
93.786,-0.89,99.43,0
93.806,-0.77,99.43,0
93.826,-1.01,99.43,0
93.846,-0.65,99.43,0
93.866,-0.65,99.55,0
93.886,-0.65,99.43,0
93.907,-0.65,99.43,0
93.928,,,
93.946,-0.65,99.43,0
93.966,-0.28,99.43,0
93.986,-2.11,99.43,0
94.006,-4.07,99.43,0
94.026,-5.66,99.43,0
94.046,-7.86,99.43,0
94.066,-9.57,99.43,0
94.086,-10.18,99.43,0
94.106,,,
94.126,-10.67,99.43,0
94.146,-10.79,99.43,0
94.166,-10.91,99.43,0
94.186,-11.16,99.43,0
94.206,-11.16,99.43,0
94.226,-11.16,99.43,0
94.246,-11.16,99.43,0
94.267,-11.28,99.43,0
94.288,-11.28,99.43,0
94.312,-11.28,99.43,0
94.333,,,
94.346,-11.28,99.43,0
94.366,-11.28,99.43,0
94.386,-11.28,99.43,0
94.406,-11.28,99.43,1
94.427,-11.28,99.43,1
94.448,,,
94.468,-11.16,99.43,1
94.488,-11.28,99.43,1
94.508,-11.28,99.43,1
94.528,-11.28,99.43,1
94.548,-11.4,99.43,1
94.568,-11.4,99.43,1
94.588,-11.4,99.43,1
94.608,,,
94.628,-11.4,99.43,1
94.648,-11.4,99.43,1
94.668,-11.16,99.43,1
94.688,-10.67,99.43,1
94.708,-9.93,99.43,1
94.728,-8.71,99.43,1
94.748,-7.0,99.43,1
94.768,-5.66,99.43,1
94.788,-4.8,99.43,1
94.812,-3.95,99.43,1
94.833,-3.46,99.43,1
94.853,-3.09,99.43,1
94.878,-2.85,99.55,1
94.898,-2.6,99.43,1
94.919,-1.99,99.43,1
94.943,-1.87,99.43,0
94.964,-1.87,99.43,0
94.984,-1.87,99.43,0
95.009,-1.38,99.43,0
95.029,-1.01,99.43,0
95.05,,,
95.053,,,
95.073,-1.14,99.43,0
95.093,-1.26,99.43,0
95.113,-1.26,99.43,0
95.133,-0.89,99.43,0
95.153,-0.77,99.43,0
95.173,-0.89,99.43,0
95.193,-0.89,99.55,0
95.213,-1.01,99.43,0
95.233,-0.77,99.43,0
95.253,-0.65,99.43,0
95.271,-0.77,99.43,0
95.292,-0.65,99.43,0
95.312,,,
95.331,-0.53,99.43,0
95.351,-0.89,99.43,0
95.371,-2.97,99.43,0
95.391,-4.8,99.43,0
95.411,-6.51,99.43,0
95.431,-8.59,99.43,0
95.451,-9.81,99.43,0
95.471,-10.3,99.43,0
95.491,,,
95.511,-10.67,99.43,0
95.531,-10.79,99.43,0
95.551,-10.91,99.43,0
95.571,-11.03,99.43,0
95.591,-11.16,99.43,0
95.611,-11.16,99.43,0
95.631,-11.16,99.43,0
95.651,,,
95.672,-11.16,99.43,0
95.692,-11.28,99.43,0
95.712,-11.28,99.43,0
95.732,-11.28,99.55,0
95.752,-11.28,99.43,0
95.772,-11.28,99.43,1
95.792,-11.28,99.43,1
95.812,-11.28,99.43,1
95.832,-11.28,99.55,1
95.857,-11.28,99.43,1
95.877,,,
95.892,-11.28,99.43,1
95.912,-11.28,99.43,1
95.932,-11.4,99.43,1
95.952,-11.28,99.43,1
95.972,-11.4,99.43,1
95.992,,,
96.012,-11.4,99.43,1
96.032,-11.4,99.43,1
96.052,-11.03,99.43,1
96.073,-10.42,99.43,1
96.093,-9.69,99.43,1
96.113,-8.1,99.43,1
96.133,-6.51,99.43,1
96.153,-5.41,99.43,1
96.173,-4.44,99.43,1
96.193,,,
96.213,-3.82,99.43,1
96.233,-3.34,99.43,1
96.253,-3.09,99.43,1
96.273,-2.72,99.43,1
96.293,-2.24,99.55,1
96.313,-1.99,99.43,1
96.333,-1.87,99.43,0
96.353,-1.75,99.55,0
96.373,-1.75,99.43,0
96.393,-1.26,99.43,0
96.414,-1.14,99.43,0
96.434,-1.26,99.43,0
96.459,-1.26,99.43,0
96.48,-1.14,99.43,0
96.5,-0.89,99.43,0
96.524,-0.89,99.43,0
96.545,-0.89,99.43,0
96.565,-1.01,99.43,0
96.59,-0.89,99.43,0
96.61,-0.77,99.43,0
96.635,-0.77,99.43,0
96.655,-0.77,99.43,0
96.68,-0.65,99.43,0
96.701,,,
96.701,,,
96.72,-0.53,99.43,0
96.74,-1.99,99.43,0
96.76,-4.19,99.43,0
96.78,-5.9,99.43,0
96.8,-8.22,99.55,0
96.82,-9.69,99.43,0
96.84,-10.3,99.43,0
96.864,-10.67,99.43,0
96.889,-10.79,99.43,0
96.909,,,
96.929,-10.91,99.43,0
96.949,-11.16,99.43,0
96.969,-11.16,99.43,0
96.989,-11.16,99.55,0
97.009,-11.16,99.43,0
97.032,-11.28,99.43,0
97.053,,,
97.07,-11.28,99.43,0
97.089,-11.28,99.43,0
97.109,-11.28,99.43,0
97.129,-11.28,99.43,0
97.151,-11.28,99.43,1
97.176,-11.28,99.43,1
97.2,-11.28,99.43,1
97.221,,,
97.229,-11.28,99.43,1
97.249,-11.28,99.43,1
97.27,-11.4,99.43,1
97.295,-11.4,99.43,1
97.319,-11.4,99.43,1
97.343,-11.4,99.43,1
97.368,-11.4,99.43,1
97.389,,,
97.395,-11.4,99.43,1
97.415,-11.16,99.43,1
97.437,-10.54,99.43,1
97.462,-9.69,99.43,1
97.487,-7.98,99.43,1
97.507,-6.27,99.43,1
97.532,-5.29,99.43,1
97.552,,,
97.555,,,
97.575,-4.56,99.43,1
97.595,-3.7,99.43,1
97.615,-3.21,99.43,1
97.635,-2.97,99.43,1
97.655,-2.72,99.43,1
97.675,-2.24,99.43,1
97.695,-1.87,99.43,1
97.715,,,
97.735,-1.75,99.43,0
97.755,-1.63,99.43,0
97.775,-1.5,99.43,0
97.795,-1.01,99.43,0
97.815,-1.14,99.43,0
97.835,-1.14,99.43,0
97.855,-1.14,99.43,0
97.876,-0.89,99.43,0
97.897,-0.53,99.43,0
97.921,-0.65,99.43,0
97.941,,,
97.955,-0.65,99.43,0
97.975,-0.65,99.43,0
97.995,-0.28,99.43,0
98.015,-0.28,99.43,0
98.036,-0.4,99.43,0
98.056,,,
98.075,-0.16,99.43,0
98.095,-0.16,99.43,0
98.106,-1.75,99.43,0
98.126,-3.95,99.43,0
98.15,-5.54,99.43,0
98.171,,,
98.186,-7.98,99.43,0
98.206,-9.69,99.43,0
98.226,-10.3,99.43,0
98.246,-10.67,99.43,0
98.266,-10.91,99.43,0
98.29,-11.03,99.43,0
98.314,-11.16,99.43,0
98.339,-11.28,99.55,0
98.363,-11.28,99.43,0
98.384,,,
98.386,,,
98.406,-11.28,99.43,0
98.426,-11.4,99.43,0
98.446,-11.4,99.43,0
98.466,-11.4,99.55,0
98.486,-11.4,99.43,0
98.507,-11.4,99.55,0
98.531,-11.4,99.43,1
98.552,,,
98.567,-11.4,99.43,1
98.587,-11.4,99.43,1
98.607,-11.4,99.43,1
98.627,-11.52,99.43,1
98.65,-11.52,99.43,1
98.675,-11.52,99.43,1
98.699,-11.4,99.43,1
98.72,,,
98.727,-11.4,99.43,1
98.747,-11.52,99.43,1
98.769,-11.52,99.43,1
98.793,-11.16,99.43,1
98.818,-10.67,99.43,1
98.842,-9.93,99.43,1
98.863,-8.22,99.43,1
98.887,-6.39,99.43,1
98.908,,,
98.928,-5.41,99.43,1
98.948,-4.68,99.43,1
98.968,-3.58,99.43,1
98.988,-3.21,99.43,1
99.008,-2.72,99.43,1
99.028,-2.36,99.43,1
99.048,-2.11,99.43,1
99.072,-1.5,99.43,0
99.092,-1.38,99.43,0
99.117,-1.26,99.43,0
99.138,,,
99.148,-1.14,99.43,0
99.168,-0.89,99.43,0
99.188,-0.65,99.43,0
99.208,-0.65,99.43,0
99.232,-0.53,99.43,0
99.252,,,
99.268,-0.65,99.43,0
99.288,-0.4,99.43,0
99.309,-0.4,99.43,0
99.329,-0.4,99.43,0
99.349,-0.4,99.43,0
99.369,,,
99.389,-0.28,99.43,0
99.409,-0.28,99.43,0
99.429,-0.28,99.43,0
99.449,0.09,99.43,0
99.469,-0.28,99.43,0
99.489,-2.11,99.43,0
99.509,-4.19,99.43,0
99.529,-5.9,99.43,0
99.551,-8.22,99.43,0
99.572,,,
99.589,-9.81,99.55,0
99.609,-10.3,99.43,0
99.629,-10.67,99.55,0
99.649,-10.91,99.43,0
99.669,,,
99.689,-11.03,99.43,0
99.709,-11.16,99.43,0
99.729,-11.16,99.43,0
99.749,-11.28,99.43,0
99.769,-11.28,99.43,0
99.789,-11.28,99.43,0
99.813,-11.28,99.43,0
99.834,,,
99.849,-11.28,99.43,0
99.869,-11.4,99.43,0
99.889,-11.4,99.43,0
99.909,-11.4,99.43,1
99.932,-11.4,99.43,1
99.956,-11.4,99.43,1
99.981,-11.4,99.43,1
100.002,,,
100.009,-11.4,99.43,1
100.029,-11.4,99.43,1
100.051,-11.4,99.43,1
100.075,-11.4,99.43,1
100.1,-11.4,99.43,1
100.125,-11.28,99.43,1
100.145,,,
100.165,-11.4,99.43,1
100.185,-11.03,99.43,1
100.205,-10.54,99.43,1
100.225,-9.69,99.43,1
100.245,-7.86,99.43,1
100.265,-6.27,99.43,1
100.288,-5.17,99.43,1
100.309,,,
100.325,-4.44,99.43,1
100.345,-3.82,99.43,1
100.365,-3.09,99.43,1
100.385,-2.85,99.55,1
100.405,-2.24,99.43,1
100.425,,,
100.445,-2.24,99.43,1
100.465,-1.87,99.43,0
100.485,-1.63,99.43,0
100.505,-1.5,99.43,0
100.525,-1.38,99.43,0
100.545,-1.26,99.43,0
100.565,-1.14,99.43,0
100.587,-1.01,99.55,0
100.608,-0.89,99.43,0
100.632,-1.14,99.43,0
100.653,,,
100.665,-0.89,99.43,0
100.685,-0.89,99.43,0
100.705,-0.77,99.43,0
100.725,-0.89,99.43,0
100.747,-0.89,99.43,0
100.767,,,
100.785,-0.65,99.43,0
100.805,-0.77,99.43,0
100.825,-0.4,99.43,0
100.845,-0.77,99.55,0
100.865,-2.85,99.43,0
100.885,,,
100.905,-4.68,99.43,0
100.926,-6.39,99.55,0
100.946,-8.71,99.43,0
100.966,-9.93,99.43,0
100.986,-10.42,99.43,0
101.006,-10.79,99.43,0
101.026,-10.91,99.43,0
101.046,-11.03,99.43,0
101.071,-11.16,99.43,0
101.095,-11.16,99.43,0
101.12,-11.28,99.43,0
101.144,-11.28,99.43,0
101.165,,,
101.166,,,
101.186,-11.28,99.43,0
101.206,-11.28,99.43,0
101.226,-11.4,99.43,0
101.246,-11.4,99.43,0
101.266,-11.4,99.43,0
101.287,-11.4,99.43,1
101.312,-11.4,99.55,1
101.333,,,
101.353,-11.4,99.43,1
101.373,-11.4,99.43,1
101.393,-11.4,99.43,1
101.413,-11.4,99.43,1
101.433,-11.4,99.43,1
101.456,-11.4,99.43,1
101.477,,,
101.493,-11.4,99.43,1
101.513,-11.4,99.43,1
101.533,-11.4,99.43,1
101.553,-11.03,99.43,1
101.574,-10.42,99.43,1
101.599,-9.57,99.43,1
101.619,,,
101.633,-7.73,99.43,1
101.653,-6.15,99.43,1
101.673,-5.05,99.43,1
101.693,-4.19,99.43,1
101.714,-3.7,99.43,1
101.734,,,
101.754,-3.21,99.43,1
101.774,-2.72,99.43,1
101.794,-2.11,99.43,1
101.814,-1.99,99.43,1
101.834,-1.87,99.43,0
101.854,-1.38,99.43,0
101.874,-1.14,99.43,0
101.894,,,
101.914,-0.89,99.43,0
101.934,-0.89,99.43,0
101.954,-0.65,99.43,0
101.974,-0.65,99.43,0
101.994,-0.4,99.43,0
102.014,-0.65,99.43,0
102.034,-0.65,99.43,0
102.057,-0.28,99.43,0
102.078,-0.28,99.43,0
102.103,-0.04,99.43,0
102.123,,,
102.134,-0.28,99.43,0
102.148,-0.16,99.43,0
102.172,-0.04,99.43,0
102.193,0.09,99.43,0
102.213,,,
102.228,-0.16,99.43,0
102.248,-2.48,99.43,0
102.268,-4.44,99.43,0
102.288,-6.27,99.43,0
102.308,-8.59,99.43,0
102.328,,,
102.348,-9.93,99.43,0
102.368,-10.42,99.43,0
102.388,-10.79,99.43,0
102.408,-10.91,99.43,0
102.428,-11.16,99.43,0
102.448,,,
102.468,-11.28,99.43,0
102.488,-11.28,99.43,0
102.508,-11.28,99.43,0
102.528,-11.28,99.43,0
102.548,-11.4,99.43,0
102.57,-11.4,99.43,0
102.594,-11.4,99.43,0
102.615,,,
102.63,-11.4,99.43,0
102.65,-11.4,99.43,0
102.67,-11.4,99.43,1
102.69,-11.4,99.43,1
102.713,-11.4,99.43,1
102.737,-11.4,99.43,1
102.758,,,
102.77,-11.4,99.43,1
102.79,-11.4,99.43,1
102.81,-11.4,99.43,1
102.832,-11.4,99.43,1
102.856,-11.52,99.43,1
102.881,-11.4,99.43,1
102.905,-11.4,99.43,1
102.926,,,
102.93,,,
102.95,-11.03,99.43,1
102.97,-10.42,99.43,1
102.976,-9.45,99.43,1
103.0,-7.73,99.43,1
103.02,,,
103.036,-6.15,99.43,1
103.056,-5.05,99.43,1
103.076,-4.19,99.43,1
103.096,-3.7,99.43,1
103.116,-3.34,99.43,1
103.136,,,
103.156,-2.72,99.43,1
103.176,-2.11,99.43,1
103.196,-1.87,99.43,1
103.216,-1.99,99.43,0
103.236,-1.5,99.43,0
103.256,-1.14,99.43,0
103.276,-0.89,99.43,0
103.296,,,
103.316,-1.01,99.43,0
103.336,-1.01,99.43,0
103.356,-0.77,99.43,0
103.376,-0.65,99.43,0
103.389,-0.53,99.55,0
103.409,,,
103.429,-0.89,99.43,0
103.449,-0.65,99.43,0
103.469,-0.53,99.43,0
103.489,-0.4,99.43,0
103.509,-0.53,99.43,0
103.529,-0.53,99.43,0
103.549,-0.4,99.43,0
103.573,-0.04,99.43,0
103.594,-0.53,99.43,0
103.618,-2.85,99.43,0
103.639,,,
103.649,-4.68,99.43,0
103.669,-6.63,99.43,0
103.689,-8.83,99.43,0
103.709,-9.93,99.43,0
103.733,-10.54,99.43,0
103.757,-10.79,99.43,0
103.778,,,
103.789,-10.91,99.43,0
103.803,,,
103.823,-11.16,99.43,0
103.843,-11.16,99.55,0
103.863,-11.28,99.43,0
103.883,-11.28,99.43,0
103.903,-11.28,99.43,0
103.925,-11.28,99.43,0
103.946,,,
103.963,-11.4,99.43,0
103.983,-11.4,99.43,0
104.003,-11.4,99.43,0
104.023,-11.4,99.43,0
104.044,-11.4,99.43,1
104.069,-11.4,99.43,1
104.089,,,
104.103,-11.4,99.43,1
104.123,-11.4,99.43,1
104.143,-11.4,99.43,1
104.163,-11.4,99.43,1
104.188,-11.4,99.43,1
104.214,-11.4,99.43,1
104.237,-11.4,99.43,1
104.257,,,
104.274,-11.4,99.43,1
104.294,-11.4,99.43,1
104.314,-10.91,99.43,1
104.334,-10.3,99.43,1
104.355,-9.2,99.43,1
104.376,,,
104.394,-7.49,99.43,1
104.414,-6.02,99.43,1
104.434,-4.8,99.43,1
104.454,-3.95,99.43,1
104.474,-3.58,99.43,1
104.494,-3.34,99.43,1
104.515,-2.6,99.43,1
104.54,-2.11,99.43,1
104.56,-1.75,99.43,1
104.585,-1.87,99.43,0
104.606,,,
