Time (s),Pressure 1 (kPa),Pressure 2 (kPa),Switch State
0.097,-7.49,99.55,1
0.117,-7.49,99.55,1
0.137,-7.61,99.55,1
0.157,-7.49,99.43,1
0.177,-7.61,99.55,1
0.197,-7.49,99.55,1
0.217,-7.49,99.43,1
0.237,-7.49,99.55,1
0.257,-7.49,99.43,1
0.277,-7.49,99.55,1
0.297,-7.49,99.43,1
0.317,-7.61,99.43,1
0.337,-7.49,99.43,1
0.357,-7.49,99.43,1
0.377,-7.49,99.43,1
0.397,-7.49,99.43,1
0.417,-7.49,99.43,1
0.437,-7.49,99.43,1
0.457,-7.49,99.43,1
0.477,-7.49,99.43,1
0.497,-7.49,99.43,1
0.517,-7.49,99.43,1
0.537,-7.49,99.43,1
0.557,-7.61,99.43,1
0.577,-7.49,99.43,1
0.597,-7.49,99.43,1
0.617,-7.49,99.43,1
0.637,-7.61,99.43,1
0.657,-7.49,99.43,1
0.677,-7.49,99.43,1
0.697,-7.49,99.43,1
0.717,-7.49,99.43,1
0.737,-7.49,99.43,1
0.757,-7.49,99.55,1
0.777,-7.49,99.43,1
0.797,-7.61,99.43,1
0.817,-7.49,99.43,1
0.837,-7.49,99.43,1
0.857,-7.49,99.43,1
0.877,-7.49,99.43,1
0.897,-7.49,99.43,1
0.898,-7.49,99.43,1
0.918,-7.49,99.43,1
0.938,-7.49,99.43,1
0.958,-7.49,99.43,1
0.978,-7.49,99.55,1
0.998,-7.49,99.43,1
1.018,-7.49,99.43,1
1.038,-7.49,99.55,1
1.058,-7.49,99.43,1
1.078,-7.49,99.55,1
1.098,-7.49,99.43,1
1.118,-7.49,99.43,1
1.138,-7.49,99.55,1
1.158,-7.49,99.43,1
1.178,-7.49,99.55,1
1.198,-7.49,99.43,1
1.218,-7.49,99.43,1
1.238,-7.49,99.43,1
1.258,-7.49,99.55,1
1.278,-7.49,99.43,1
1.298,-7.49,99.43,1
1.299,-7.49,99.43,1
1.319,-7.49,99.43,1
1.339,-7.49,99.43,1
1.359,-7.49,99.43,1
1.379,-7.49,99.43,1
1.399,-7.49,99.43,1
1.419,-7.49,99.43,1
1.439,-7.49,99.43,1
1.459,-7.49,99.43,1
1.479,-7.61,99.43,1
1.499,-7.49,99.55,1
1.519,-7.49,99.55,1
1.539,-7.49,99.55,1
1.559,-7.49,99.55,1
1.579,-7.49,99.55,1
1.599,-7.49,99.43,1
1.619,-7.49,99.55,1
1.639,-7.49,99.43,1
1.659,-7.49,99.43,1
1.679,-7.49,99.43,1
1.699,-7.49,99.43,1
1.7,-7.49,99.43,1
1.72,-7.49,99.43,1
1.74,-7.49,99.43,1
1.76,-7.49,99.43,1
1.78,-7.49,99.43,1
1.8,-7.49,99.43,1
1.82,-7.49,99.43,1
1.84,-7.49,99.43,1
1.86,-7.49,99.43,1
1.88,-7.49,99.43,1
1.9,-7.49,99.43,1
1.92,-7.49,99.43,1
1.94,-7.49,99.55,1
1.96,-7.49,99.55,1
1.98,-7.49,99.43,1
2.0,-7.49,99.55,1
2.02,-7.49,99.55,1
2.04,-7.49,99.43,1
2.06,-7.49,99.55,1
2.08,-7.49,99.43,1
2.1,-7.49,99.43,1
2.12,-7.49,99.43,1
2.14,-7.49,99.43,1
2.16,-7.49,99.43,1
2.18,-7.49,99.43,1
2.2,-7.49,99.43,1
2.22,-7.49,99.43,1
2.24,-7.49,99.43,1
2.26,-7.49,99.43,1
2.28,-7.49,99.55,1
2.3,-7.49,99.43,1
2.32,-7.49,99.43,1
2.34,-7.49,99.43,1
2.36,-7.49,99.43,1
2.38,-7.49,99.43,1
2.4,-7.49,99.43,1
2.42,-7.61,99.43,1
2.44,-7.49,99.43,1
2.46,-7.49,99.43,1
2.48,-7.49,99.55,1
2.501,-7.49,99.55,1
2.521,-7.49,99.55,1
2.541,-7.49,99.55,1
2.561,-7.49,99.55,1
2.581,-7.49,99.43,1
2.601,-7.49,99.55,1
2.621,-7.61,99.55,1
2.641,-7.49,99.55,1
2.661,-7.49,99.43,1
2.681,-7.61,99.43,1
2.701,-7.49,99.43,1
2.721,-7.49,99.43,1
2.741,-7.49,99.43,1
2.761,-7.49,99.43,1
2.781,-7.49,99.43,1
2.801,-7.49,99.43,1
2.821,-7.49,99.43,1
2.841,-7.49,99.55,1
2.861,-7.49,99.43,1
2.881,-7.49,99.43,1
2.902,-7.49,99.43,1
2.922,-7.49,99.55,1
2.942,-7.49,99.43,1
2.962,-7.61,99.55,1
2.982,-7.49,99.43,1
3.002,-7.49,99.55,1
3.022,-7.49,99.43,1
3.042,-7.49,99.55,1
3.062,-7.61,99.43,1
3.082,-7.49,99.55,1
3.102,-7.49,99.43,1
3.122,-7.61,99.43,1
3.142,-7.49,99.43,1
3.162,-7.49,99.43,1
3.182,-7.49,99.43,1
3.202,-7.49,99.43,1
3.222,-7.49,99.43,1
3.242,-7.49,99.43,1
3.262,-7.49,99.43,1
3.282,-7.49,99.43,1
3.302,-7.49,99.43,1
3.303,-7.49,99.43,1
3.323,-7.49,99.55,1
3.343,-7.37,99.43,1
3.363,-7.37,99.55,1
3.383,-7.25,99.55,1
3.403,-7.37,99.55,1
3.423,-7.37,99.55,1
3.443,-7.37,99.55,1
3.463,-7.49,99.43,1
3.483,-7.49,99.43,1
3.503,-7.49,99.43,1
3.523,-7.49,99.43,1
3.543,-7.49,99.43,1
3.563,-7.49,99.43,1
3.583,-7.49,99.43,1
3.603,-7.49,99.43,1
3.623,-7.49,99.43,1
3.643,-7.49,99.43,1
3.663,-7.49,99.43,1
3.683,-7.49,99.55,1
3.703,-7.49,99.43,1
3.723,-7.49,99.43,1
3.743,-7.49,99.55,1
3.763,-7.49,99.43,1
3.783,-7.49,99.43,1
3.803,-7.49,99.55,1
3.823,-7.49,99.43,1
3.843,-7.49,99.43,1
3.863,-7.49,99.43,1
3.883,-7.49,99.43,1
3.903,-7.49,99.43,1
3.923,-7.49,99.43,1
3.943,-7.49,99.55,1
3.963,-7.49,99.55,1
3.983,-7.49,99.43,1
4.003,-7.61,99.43,1
4.023,-7.61,99.43,1
4.043,-7.49,99.43,1
4.063,-7.49,99.43,1
4.083,-7.49,99.43,1
4.104,-7.49,99.43,1
4.124,-7.49,99.43,1
4.144,-7.49,99.43,1
4.164,-7.49,99.43,1
4.184,-7.49,99.43,1
4.204,-7.49,99.43,1
4.224,-7.49,99.43,1
4.244,-7.49,99.43,1
4.264,-7.49,99.43,1
4.284,-7.49,99.43,1
4.304,-7.49,99.43,1
4.324,-7.49,99.43,1
4.344,-7.49,99.55,1
4.364,-7.49,99.55,1
4.384,-7.49,99.55,1
4.404,-7.49,99.43,1
4.424,-7.61,99.55,1
4.444,-7.49,99.55,1
4.464,-7.49,99.55,1
4.484,-7.49,99.55,1
4.504,-7.49,99.55,1
4.504,-7.49,99.43,1
4.524,-7.49,99.43,1
4.544,-7.49,99.55,1
4.564,-7.37,99.43,1
4.584,-6.76,99.43,1
4.604,-6.02,99.43,1
4.624,-5.66,99.43,1
4.644,-5.29,99.43,1
4.664,-5.17,99.43,1
4.684,-4.92,99.43,1
4.704,-4.68,99.43,1
4.724,-4.44,99.55,1
4.744,-4.44,99.43,1
4.764,-4.44,99.43,1
4.784,-4.44,99.43,1
4.804,-4.31,99.55,1
4.824,-4.44,99.55,1
4.844,-4.44,99.55,1
4.864,-4.44,99.43,1
4.884,-4.19,99.55,1
4.904,-4.07,99.55,1
4.905,-4.07,99.43,1
4.925,-4.07,99.55,0
4.945,-4.07,99.43,0
4.965,-4.19,99.43,0
4.985,-4.31,99.43,0
5.005,-4.19,99.43,0
5.025,-4.07,99.55,0
5.045,-4.07,99.43,0
5.065,-4.07,99.43,0
5.085,-4.07,99.43,0
5.105,-4.19,99.43,0
5.125,-4.07,99.43,0
5.145,-4.19,99.55,0
5.165,-4.07,99.55,0
5.185,-3.95,99.43,0
5.205,-3.95,99.43,0
5.225,-3.95,99.43,0
5.245,-3.95,99.55,0
5.265,-3.95,99.55,0
5.285,-4.07,99.55,0
5.305,-4.07,99.55,0
5.306,-4.07,99.55,0
5.326,-3.95,99.43,0
5.346,-3.95,99.43,0
5.366,-3.95,99.43,0
5.386,-4.07,99.43,0
5.406,-3.95,99.43,0
5.426,-3.95,99.55,0
5.446,-3.95,99.43,0
5.466,-3.95,99.43,0
5.486,-3.82,99.43,0
5.506,-3.82,99.43,0
5.526,-3.82,99.43,0
5.546,-3.82,99.43,0
5.566,-3.82,99.43,0
5.586,-3.95,99.43,0
5.606,-4.44,99.43,0
5.626,-5.54,99.43,0
5.646,-6.27,99.43,0
5.666,-6.76,99.43,0
5.686,-7.12,99.55,0
5.706,-8.22,99.43,0
5.726,-8.96,99.43,0
5.746,-9.32,99.43,0
5.766,-9.45,99.55,0
5.786,-9.57,99.43,0
5.806,-9.69,99.43,0
5.826,-9.81,99.43,0
5.846,-9.81,99.43,0
5.866,-9.81,99.43,0
5.886,-9.81,99.55,0
5.906,-9.81,99.43,0
5.926,-9.81,99.43,0
5.946,-9.81,99.43,0
5.966,-9.93,99.43,0
5.986,-9.93,99.43,0
6.006,-10.06,99.43,0
6.026,-9.93,99.43,0
6.046,-9.93,99.43,0
6.066,-9.93,99.43,0
6.086,-9.93,99.43,0
6.106,-10.06,99.43,0
6.107,-10.06,99.43,0
6.127,-10.06,99.55,0
6.147,-10.06,99.43,0
6.167,-10.06,99.43,0
6.187,-10.06,99.43,0
6.207,-10.06,99.43,0
6.227,-10.06,99.43,0
6.247,-9.93,99.43,0
6.267,-10.06,99.43,0
6.287,-10.06,99.43,0
6.307,-10.06,99.43,0
6.327,-10.18,99.55,1
6.347,-10.18,99.55,1
6.367,-10.06,99.55,1
6.387,-10.06,99.43,1
6.407,-10.06,99.43,1
6.427,-10.06,99.43,1
6.447,-10.06,99.43,1
6.467,-10.06,99.55,1
6.487,-10.18,99.43,1
6.507,-10.18,99.43,1
6.507,-10.18,99.43,1
6.527,-10.18,99.43,1
6.547,-10.18,99.55,1
6.567,-10.18,99.43,1
6.587,-10.18,99.43,1
6.607,-10.3,99.43,1
6.627,-10.18,99.43,1
6.647,-9.57,99.43,1
6.667,-9.08,99.43,1
6.687,-8.47,99.43,1
6.707,-8.1,99.43,1
6.727,-7.37,99.43,1
6.747,-6.63,99.43,1
6.767,-6.15,99.43,1
6.787,-5.66,99.43,1
6.807,-5.29,99.43,1
6.827,-4.92,99.43,1
6.847,-4.8,99.55,1
6.867,-4.68,99.43,1
6.887,-4.68,99.55,1
6.907,-4.56,99.55,1
6.908,-4.68,99.55,1
6.928,-4.56,99.55,1
6.948,-4.31,99.55,1
6.968,-4.19,99.55,1
6.988,-4.07,99.43,1
7.008,-4.19,99.43,0
7.028,-4.07,99.43,0
7.048,-4.07,99.43,0
7.068,-4.19,99.43,0
7.088,-4.19,99.43,0
7.108,-4.07,99.43,0
7.128,-4.07,99.43,0
7.148,-3.95,99.43,0
7.168,-4.07,99.43,0
7.188,-4.07,99.43,0
7.208,-4.19,99.43,0
7.228,-4.19,99.43,0
7.248,-4.19,99.43,0
7.268,-4.07,99.43,0
7.288,-3.82,99.55,0
7.308,-3.95,99.55,0
7.328,-3.95,99.55,0
7.348,-3.95,99.55,0
7.368,-3.95,99.55,0
7.388,-3.95,99.43,0
7.408,-4.07,99.43,0
7.428,-4.07,99.43,0
7.448,-3.95,99.43,0
7.468,-3.82,99.43,0
7.488,-3.95,99.43,0
7.508,-3.95,99.43,0
7.528,-3.82,99.43,0
7.548,-3.82,99.43,0
7.568,-3.95,99.43,0
7.588,-3.82,99.43,0
7.608,-3.7,99.43,0
7.628,-3.58,99.43,0
7.648,-3.58,99.43,0
7.668,-3.82,99.55,0
7.688,-3.82,99.43,0
7.708,-4.31,99.43,0
7.71,-5.41,99.43,0
7.73,-6.27,99.43,0
7.75,-6.76,99.43,0
7.77,-7.12,99.43,0
7.79,-7.98,99.55,0
7.81,-8.83,99.43,0
7.83,-9.2,99.43,0
7.85,-9.45,99.43,0
7.87,-9.57,99.55,0
7.89,-9.69,99.43,0
7.91,-9.81,99.43,0
7.93,-9.93,99.43,0
7.95,-9.93,99.43,0
7.97,-9.93,99.55,0
7.99,-9.93,99.43,0
8.01,-9.93,99.55,0
8.03,-9.93,99.43,0
8.05,-9.93,99.43,0
8.07,-10.06,99.43,0
8.09,-10.06,99.43,0
8.11,-10.06,99.43,0
8.111,-10.06,99.55,0
8.131,-10.06,99.43,0
8.151,-10.06,99.55,0
8.171,-10.06,99.43,0
8.191,-10.06,99.43,0
8.211,-10.06,99.43,0
8.231,-10.06,99.43,0
8.251,-10.06,99.43,0
8.271,-10.06,99.43,0
8.291,-10.06,99.43,0
8.311,-10.06,99.55,0
8.331,-10.06,99.55,0
8.351,-10.06,99.55,0
8.371,-10.18,99.43,0
8.391,-10.18,99.43,0
8.411,-10.18,99.43,1
8.431,-10.18,99.43,1
8.451,-10.18,99.43,1
8.471,-10.18,99.55,1
8.491,-10.06,99.43,1
8.511,-10.18,99.43,1
8.531,-10.18,99.55,1
8.551,-10.18,99.55,1
8.571,-10.18,99.55,1
8.591,-10.18,99.55,1
8.611,-10.18,99.43,1
8.631,-10.18,99.43,1
8.651,-10.18,99.43,1
8.671,-10.18,99.55,1
8.691,-10.3,99.43,1
8.711,-10.3,99.43,1
8.731,-10.06,99.43,1
8.751,-9.57,99.55,1
8.771,-8.83,99.55,1
8.791,-8.47,99.43,1
8.811,-7.98,99.55,1
8.831,-7.12,99.55,1
8.851,-6.51,99.43,1
8.871,-6.02,99.55,1
8.891,-5.54,99.43,1
8.912,-5.17,99.55,1
8.932,-4.92,99.43,1
8.952,-4.8,99.43,1
8.972,-4.68,99.43,1
8.992,-4.68,99.43,1
9.012,-4.68,99.43,1
9.032,-4.68,99.43,1
9.052,-4.44,99.43,1
9.072,-4.31,99.43,1
9.092,-4.07,99.55,1
9.112,-4.07,99.43,1
9.132,-4.19,99.43,0
9.152,-4.19,99.43,0
9.172,-4.19,99.55,0
9.192,-4.31,99.55,0
9.212,-4.31,99.43,0
9.232,-4.07,99.55,0
9.252,-4.07,99.43,0
9.272,-4.07,99.55,0
9.292,-4.07,99.43,0
9.312,-4.07,99.55,0
9.332,-4.07,99.55,0
9.352,-4.19,99.55,0
9.372,-4.19,99.43,0
9.392,-3.95,99.43,0
9.413,-3.82,99.43,0
9.432,-3.82,99.43,0
9.452,-3.95,99.43,0
9.472,-3.95,99.43,0
9.492,-3.95,99.43,0
9.512,-4.07,99.43,0
9.532,-3.95,99.43,0
9.552,-3.95,99.43,0
9.572,-3.82,99.43,0
9.592,-3.82,99.43,0
9.612,-3.95,99.55,0
9.632,-3.95,99.55,0
9.652,-3.82,99.55,0
9.672,-3.82,99.43,0
9.692,-3.82,99.55,0
9.712,-3.7,99.43,0
9.713,-3.7,99.55,0
9.733,-3.7,99.43,0
9.753,-3.82,99.43,0
9.773,-3.82,99.43,0
9.793,-4.31,99.43,0
9.813,-5.54,99.43,0
9.833,-6.39,99.55,0
9.853,-6.88,99.55,0
9.873,-7.25,99.43,0
9.893,-8.35,99.43,0
9.914,-9.08,99.43,0
9.933,-9.45,99.43,0
9.953,-9.57,99.55,0
9.973,-9.69,99.43,0
9.993,-9.81,99.43,0
10.013,-9.93,99.43,0
10.033,-10.06,99.55,0
10.053,-10.06,99.43,0
10.073,-9.93,99.43,0
10.093,-9.93,99.55,0
10.113,-9.93,99.55,0
10.114,-9.93,99.43,0
10.134,-10.06,99.43,0
10.154,-10.06,99.43,0
10.174,-10.06,99.43,0
10.194,-10.06,99.55,0
10.214,-10.06,99.43,0
10.234,-10.06,99.43,0
10.254,-10.06,99.43,0
10.274,-10.06,99.43,0
10.294,-10.06,99.43,0
10.314,-10.06,99.43,0
10.334,-10.06,99.43,0
10.354,-10.06,99.43,0
10.374,-10.06,99.43,0
10.394,-10.06,99.43,0
10.414,-10.06,99.43,0
10.434,-10.06,99.43,0
10.454,-10.18,99.55,0
10.474,-10.18,99.55,1
10.494,-10.18,99.43,1
10.514,-10.18,99.55,1
10.514,-10.06,99.43,1
10.534,-10.06,99.43,1
10.554,-10.18,99.43,1
10.574,-10.18,99.55,1
10.594,-10.18,99.43,1
10.614,-10.18,99.55,1
10.634,-10.18,99.43,1
10.654,-10.18,99.43,1
10.674,-10.18,99.43,1
10.694,-10.18,99.43,1
10.714,-10.18,99.55,1
10.734,-10.18,99.43,1
10.754,-10.18,99.43,1
10.774,-9.81,99.43,1
10.794,-9.08,99.43,1
10.814,-8.59,99.43,1
10.834,-8.22,99.55,1
10.854,-7.37,99.43,1
10.874,-6.63,99.55,1
10.894,-6.15,99.55,1
10.915,-5.66,99.43,1
10.915,-5.17,99.55,1
10.935,-4.92,99.43,1
10.955,-4.8,99.43,1
10.975,-4.68,99.43,1
10.995,-4.68,99.43,1
11.015,-4.56,99.43,1
11.035,-4.68,99.43,1
11.055,-4.56,99.43,1
11.075,-4.19,99.43,1
11.095,-4.07,99.55,1
11.115,-4.07,99.55,0
11.135,-4.19,99.55,0
11.155,-4.19,99.43,0
11.175,-4.19,99.43,0
11.195,-4.19,99.43,0
11.215,-4.07,99.43,0
11.235,-4.07,99.43,0
11.255,-3.95,99.43,0
11.275,-4.07,99.43,0
11.295,-4.07,99.55,0
11.316,-4.07,99.43,0
11.336,-4.19,99.43,0
11.356,-4.31,99.43,0
11.376,-3.95,99.43,0
11.396,-3.95,99.43,0
11.416,-3.95,99.43,0
11.436,-4.07,99.43,0
11.456,-4.07,99.43,0
11.476,-4.07,99.55,0
11.496,-4.19,99.55,0
11.516,-4.07,99.55,0
11.536,-3.95,99.55,0
11.556,-3.95,99.43,0
11.576,-3.95,99.43,0
11.596,-4.07,99.43,0
11.616,-3.95,99.43,0
11.636,-3.95,99.43,0
11.656,-4.07,99.55,0
11.676,-3.95,99.43,0
11.696,-3.7,99.43,0
11.716,-3.7,99.55,0
11.736,-3.7,99.43,0
11.756,-3.82,99.43,0
11.776,-3.95,99.43,0
11.796,-4.68,99.43,0
11.816,-5.78,99.43,0
11.836,-6.51,99.43,0
11.856,-6.88,99.55,0
11.876,-7.49,99.43,0
11.896,-8.59,99.55,0
11.916,-9.2,99.55,0
11.936,-9.32,99.55,0
11.956,-9.45,99.55,0
11.976,-9.69,99.55,0
11.996,-9.81,99.43,0
12.016,-9.93,99.43,0
12.036,-9.93,99.43,0
12.056,-9.93,99.43,0
12.076,-9.93,99.43,0
12.096,-9.93,99.43,0
12.116,-9.93,99.43,0
12.117,-10.06,99.55,0
12.137,-10.06,99.55,0
12.157,-10.06,99.43,0
12.177,-10.06,99.43,0
12.197,-10.06,99.43,0
12.217,-10.18,99.43,0
12.237,-10.06,99.43,0
12.257,-10.06,99.43,0
12.277,-10.18,99.55,0
12.297,-10.18,99.43,0
12.317,-10.18,99.43,0
12.337,-10.06,99.43,0
12.357,-10.18,99.43,0
12.377,-10.06,99.55,0
12.397,-10.06,99.55,0
12.417,-10.06,99.55,0
12.437,-10.18,99.43,0
12.457,-10.18,99.43,0
12.477,-10.18,99.43,1
12.497,-10.18,99.43,1
12.517,-10.18,99.43,1
12.537,-10.06,99.43,1
12.557,-10.06,99.55,1
12.577,-10.18,99.43,1
12.597,-10.18,99.43,1
12.617,-10.18,99.43,1
12.637,-10.18,99.43,1
12.657,-10.18,99.43,1
12.677,-10.18,99.55,1
12.697,-10.18,99.43,1
12.717,-10.18,99.43,1
12.737,-10.18,99.43,1
12.757,-10.18,99.43,1
12.777,-10.18,99.43,1
12.797,-9.57,99.43,1
12.817,-8.96,99.55,1
12.837,-8.47,99.43,1
12.857,-7.98,99.43,1
12.877,-7.12,99.43,1
12.897,-6.51,99.43,1
12.917,-6.02,99.43,1
12.937,-5.54,99.43,1
12.957,-5.05,99.43,1
12.977,-4.8,99.43,1
12.997,-4.8,99.43,1
13.017,-4.68,99.43,1
13.037,-4.56,99.55,1
13.057,-4.68,99.55,1
13.077,-4.68,99.43,1
13.097,-4.31,99.55,1
13.117,-4.19,99.43,1
13.137,-4.19,99.43,1
13.157,-4.19,99.43,0
13.177,-4.19,99.43,0
13.197,-4.19,99.55,0
13.217,-4.31,99.55,0
13.237,-4.19,99.55,0
13.257,-4.07,99.43,0
13.277,-4.07,99.43,0
13.297,-4.07,99.55,0
13.317,-4.07,99.55,0
13.318,-4.07,99.43,0
13.338,-4.07,99.43,0
13.358,-4.19,99.43,0
13.378,-4.07,99.43,0
13.398,-3.82,99.43,0
13.418,-3.82,99.43,0
13.438,-3.82,99.43,0
13.458,-3.95,99.55,0
13.478,-3.95,99.43,0
13.498,-3.95,99.43,0
13.518,-4.07,99.43,0
13.538,-3.95,99.43,0
13.558,-3.82,99.43,0
13.578,-3.95,99.43,0
13.598,-3.95,99.55,0
13.618,-3.95,99.55,0
13.638,-3.95,99.55,0
13.658,-3.95,99.55,0
13.678,-3.95,99.43,0
13.698,-3.82,99.43,0
13.718,-3.7,99.43,0
13.738,-3.7,99.55,0
13.758,-3.82,99.43,0
13.778,-3.95,99.43,0
13.798,-4.07,99.43,0
13.818,-5.29,99.43,0
13.838,-6.27,99.43,0
13.858,-6.76,99.43,0
13.878,-7.12,99.55,0
13.898,-8.1,99.43,0
13.918,-8.96,99.55,0
13.938,-9.32,99.43,0
13.958,-9.45,99.43,0
13.978,-9.57,99.43,0
13.998,-9.81,99.43,0
14.018,-9.81,99.55,0
14.038,-9.93,99.43,0
14.058,-9.93,99.55,0
14.078,-9.93,99.43,0
14.098,-9.93,99.55,0
14.118,-9.93,99.43,0
14.119,-9.93,99.43,0
14.139,-10.06,99.43,0
14.159,-10.06,99.43,0
14.179,-10.06,99.43,0
14.199,-10.06,99.55,0
14.219,-10.06,99.55,0
14.239,-10.06,99.43,0
14.259,-9.93,99.43,0
14.279,-9.93,99.43,0
14.299,-10.06,99.43,0
14.319,-10.06,99.43,0
14.339,-10.06,99.43,0
14.359,-10.06,99.55,0
14.379,-10.06,99.43,0
14.399,-10.06,99.43,0
14.419,-10.06,99.43,0
14.439,-10.06,99.55,0
14.459,-10.18,99.43,0
14.479,-10.18,99.55,1
14.499,-10.18,99.55,1
14.519,-10.18,99.43,1
14.539,-10.18,99.55,1
14.559,-10.18,99.43,1
14.579,-10.06,99.43,1
14.599,-10.18,99.43,1
14.619,-10.18,99.55,1
14.639,-10.18,99.55,1
14.659,-10.18,99.55,1
14.679,-10.18,99.43,1
14.699,-10.18,99.43,1
14.719,-10.18,99.43,1
14.739,-10.18,99.55,1
14.759,-10.3,99.55,1
14.779,-10.18,99.43,1
14.799,-10.06,99.43,1
14.819,-9.32,99.43,1
14.839,-8.71,99.43,1
14.859,-8.35,99.43,1
14.879,-7.73,99.43,1
14.899,-6.88,99.43,1
14.92,-6.39,99.43,1
14.94,-5.9,99.43,1
14.96,-5.29,99.55,1
14.981,-4.92,99.55,1
15.0,-4.8,99.43,1
15.02,-4.68,99.43,1
15.04,-4.56,99.43,1
15.06,-4.56,99.43,1
15.08,-4.68,99.43,1
15.1,-4.68,99.43,1
15.12,-4.31,99.43,1
15.14,-4.07,99.55,1
15.16,-4.07,99.55,1
15.18,-4.19,99.55,0
15.2,-4.19,99.55,0
15.22,-4.19,99.55,0
15.24,-4.31,99.43,0
15.26,-4.31,99.43,0
15.28,-4.07,99.43,0
15.3,-4.07,99.55,0
15.32,-4.07,99.43,0
15.34,-4.07,99.43,0
15.36,-4.07,99.43,0
15.38,-4.19,99.43,0
15.4,-4.31,99.43,0
15.42,-4.07,99.43,0
15.44,-3.82,99.43,0
15.46,-3.95,99.43,0
15.48,-3.95,99.43,0
15.5,-3.95,99.43,0
15.52,-3.95,99.43,0
15.54,-4.07,99.43,0
15.56,-4.07,99.55,0
15.58,-3.95,99.55,0
15.6,-3.82,99.55,0
15.62,-3.82,99.55,0
15.64,-3.82,99.43,0
15.66,-3.95,99.43,0
15.68,-3.82,99.55,0
15.7,-3.95,99.43,0
15.72,-3.95,99.43,0
15.721,-3.7,99.43,0
15.741,-3.58,99.43,0
15.761,-3.58,99.55,0
15.781,-3.7,99.43,0
15.801,-3.82,99.43,0
15.821,-4.19,99.43,0
15.841,-5.41,99.43,0
15.861,-6.27,99.43,0
15.881,-6.88,99.43,0
15.901,-7.25,99.43,0
15.921,-8.35,99.43,0
15.941,-9.08,99.43,0
15.961,-9.45,99.43,0
15.981,-9.45,99.43,0
16.001,-9.69,99.55,0
16.021,-9.81,99.43,0
16.041,-9.93,99.55,0
16.061,-9.93,99.43,0
16.081,-10.06,99.43,0
16.101,-9.93,99.43,0
16.121,-9.93,99.43,0
16.141,-9.93,99.43,0
16.161,-9.93,99.43,0
16.181,-10.06,99.43,0
16.201,-10.06,99.55,0
16.221,-10.06,99.43,0
16.241,-10.18,99.43,0
16.261,-10.06,99.43,0
16.281,-10.06,99.43,0
16.301,-10.06,99.43,0
16.321,-10.06,99.55,0
16.341,-10.06,99.55,0
16.361,-10.18,99.43,0
16.381,-10.06,99.43,0
16.401,-10.06,99.43,0
16.421,-10.06,99.43,0
16.441,-9.93,99.55,0
16.461,-10.06,99.55,0
16.481,-10.18,99.55,0
16.501,-10.18,99.43,0
16.522,-10.18,99.43,1
16.542,-10.18,99.43,1
16.562,-10.18,99.43,1
16.582,-10.06,99.43,1
16.602,-10.18,99.43,1
16.622,-10.18,99.43,1
16.642,-10.18,99.43,1
16.662,-10.18,99.43,1
16.682,-10.18,99.43,1
16.702,-10.18,99.43,1
16.722,-10.18,99.43,1
16.742,-10.18,99.55,1
16.762,-10.18,99.43,1
16.782,-10.3,99.43,1
16.802,-10.18,99.43,1
16.822,-10.18,99.43,1
16.842,-9.81,99.43,1
16.862,-9.2,99.43,1
16.882,-8.59,99.55,1
16.902,-8.22,99.55,1
16.922,-7.49,99.43,1
16.922,-6.76,99.55,1
16.942,-6.27,99.55,1
16.962,-5.78,99.43,1
16.982,-5.17,99.43,1
17.002,-4.8,99.43,1
17.022,-4.8,99.43,1
17.042,-4.68,99.43,1
17.062,-4.56,99.43,1
17.082,-4.56,99.55,1
17.102,-4.68,99.55,1
17.122,-4.56,99.55,1
17.142,-4.19,99.43,1
17.162,-4.07,99.43,1
17.182,-4.07,99.43,0
17.202,-4.07,99.43,0
17.222,-4.07,99.43,0
17.242,-4.19,99.43,0
17.262,-4.31,99.43,0
17.282,-4.19,99.43,0
17.302,-3.95,99.55,0
17.322,-3.95,99.55,0
17.323,-4.07,99.55,0
17.343,-4.07,99.43,0
17.363,-4.07,99.43,0
17.383,-4.19,99.55,0
17.403,-4.19,99.43,0
17.423,-4.07,99.43,0
17.443,-3.82,99.43,0
17.463,-3.95,99.55,0
17.484,-3.95,99.43,0
17.503,-3.95,99.55,0
17.523,-3.95,99.43,0
17.543,-4.19,99.43,0
17.563,-4.07,99.43,0
17.583,-3.95,99.43,0
17.603,-3.82,99.43,0
17.623,-3.82,99.43,0
17.643,-3.82,99.43,0
17.663,-3.95,99.43,0
17.683,-3.82,99.55,0
17.703,-4.07,99.43,0
17.723,-3.95,99.55,0
17.724,-3.7,99.43,0
17.744,-3.7,99.43,0
17.764,-3.7,99.43,0
17.784,-3.7,99.43,0
17.804,-3.82,99.43,0
17.824,-4.56,99.43,0
17.844,-5.66,99.43,0
17.864,-6.39,99.43,0
17.884,-6.88,99.43,0
17.904,-7.49,99.55,0
17.924,-8.47,99.55,0
17.944,-9.08,99.43,0
17.964,-9.45,99.43,0
17.984,-9.45,99.43,0
18.004,-9.57,99.43,0
18.024,-9.81,99.43,0
18.044,-9.93,99.43,0
18.064,-9.93,99.43,0
18.084,-9.93,99.43,0
18.104,-9.93,99.43,0
18.124,-10.06,99.55,0
18.144,-9.93,99.43,0
18.164,-10.06,99.43,0
18.184,-10.18,99.43,0
18.204,-10.18,99.43,0
18.224,-10.18,99.43,0
18.244,-10.18,99.43,0
18.264,-10.18,99.43,0
18.284,-10.06,99.55,0
18.304,-10.06,99.43,0
18.324,-10.18,99.43,0
18.344,-10.18,99.43,0
18.364,-10.06,99.43,0
18.384,-10.18,99.55,0
18.404,-10.18,99.55,0
18.424,-10.06,99.43,0
18.444,-10.06,99.55,0
18.464,-10.06,99.43,0
18.484,-10.18,99.43,0
18.504,-10.18,99.43,0
18.525,-10.18,99.43,1
18.545,-10.18,99.55,1
18.565,-10.18,99.43,1
18.585,-10.06,99.43,1
18.605,-10.06,99.43,1
18.625,-10.18,99.43,1
18.645,-10.18,99.43,1
18.665,-10.18,99.43,1
18.685,-10.18,99.55,1
18.705,-10.18,99.43,1
18.725,-10.18,99.43,1
18.745,-10.18,99.43,1
18.765,-10.18,99.43,1
18.785,-10.3,99.55,1
18.805,-10.18,99.43,1
18.825,-10.18,99.55,1
18.845,-9.57,99.43,1
18.865,-8.96,99.43,1
18.885,-8.47,99.43,1
18.905,-7.98,99.43,1
18.925,-7.12,99.55,1
18.926,-6.51,99.43,1
18.946,-6.02,99.43,1
18.966,-5.54,99.43,1
18.986,-4.92,99.55,1
19.006,-4.8,99.43,1
19.026,-4.68,99.55,1
19.046,-4.68,99.43,1
19.066,-4.56,99.43,1
19.086,-4.68,99.43,1
19.106,-4.8,99.43,1
19.126,-4.44,99.55,1
19.146,-4.07,99.43,1
19.166,-4.07,99.43,1
19.186,-4.07,99.43,0
19.206,-4.19,99.55,0
19.226,-4.07,99.43,0
19.246,-4.31,99.55,0
19.266,-4.19,99.43,0
19.286,-4.07,99.43,0
19.306,-3.95,99.55,0
19.326,-3.95,99.43,0
19.346,-3.95,99.43,0
19.366,-4.07,99.43,0
19.386,-3.82,99.43,0
19.406,-4.19,99.55,0
19.426,-4.19,99.55,0
19.446,-3.82,99.43,0
19.466,-3.7,99.55,0
19.486,-3.82,99.43,0
19.506,-3.82,99.43,0
19.526,-3.82,99.43,0
19.546,-3.95,99.43,0
19.566,-4.07,99.55,0
19.586,-3.95,99.55,0
19.606,-3.82,99.55,0
19.626,-3.82,99.43,0
19.646,-3.82,99.43,0
19.666,-3.82,99.55,0
19.686,-3.95,99.43,0
19.706,-3.95,99.43,0
19.726,-4.07,99.43,0
19.727,-3.82,99.43,0
19.747,-3.7,99.43,0
19.767,-3.7,99.55,0
19.787,-3.7,99.43,0
19.807,-3.82,99.55,0
19.827,-4.07,99.43,0
19.847,-5.17,99.43,0
19.867,-6.15,99.43,0
19.887,-6.63,99.43,0
19.907,-7.12,99.43,0
19.927,-7.86,99.43,0
19.947,-8.83,99.43,0
19.967,-9.32,99.43,0
19.987,-9.45,99.43,0
20.007,-9.57,99.55,0
20.027,-9.81,99.43,0
20.047,-9.93,99.43,0
20.067,-9.93,99.43,0
20.087,-9.93,99.43,0
20.107,-9.93,99.43,0
20.127,-9.93,99.43,0
20.147,-9.93,99.43,0
20.167,-9.93,99.43,0
20.187,-10.06,99.43,0
20.207,-10.06,99.55,0
20.227,-10.06,99.55,0
20.247,-10.06,99.55,0
20.267,-10.06,99.43,0
20.287,-10.06,99.43,0
20.307,-10.06,99.43,0
20.327,-10.06,99.43,0
20.347,-10.18,99.55,0
20.367,-10.18,99.43,0
20.387,-10.18,99.43,0
20.407,-10.18,99.43,0
20.427,-10.18,99.43,0
20.447,-10.06,99.43,0
20.467,-10.06,99.55,0
20.487,-10.18,99.43,0
20.507,-10.18,99.43,0
20.527,-10.18,99.55,1
20.528,-10.18,99.43,1
20.548,-10.18,99.43,1
20.568,-10.18,99.43,1
20.588,-10.06,99.43,1
20.608,-10.18,99.55,1
20.628,-10.18,99.43,1
20.648,-10.18,99.43,1
20.668,-10.18,99.43,1
20.688,-10.18,99.55,1
20.708,-10.18,99.43,1
20.728,-10.18,99.55,1
20.748,-10.18,99.43,1
20.768,-10.3,99.43,1
20.788,-10.18,99.43,1
20.808,-10.18,99.43,1
20.828,-10.06,99.43,1
20.848,-9.32,99.43,1
20.868,-8.71,99.43,1
20.888,-8.22,99.43,1
20.908,-7.73,99.43,1
20.928,-6.88,99.55,1
20.928,-6.27,99.43,1
20.948,-5.9,99.43,1
20.968,-5.29,99.43,1
20.988,-4.92,99.43,1
21.008,-4.8,99.43,1
21.028,-4.68,99.43,1
21.048,-4.68,99.43,1
21.068,-4.68,99.55,1
21.088,-4.8,99.55,1
21.108,-4.68,99.43,1
21.128,-4.31,99.55,1
21.148,-4.07,99.43,1
21.168,-4.07,99.43,1
21.188,-4.07,99.43,0
21.208,-4.07,99.43,0
21.228,-4.19,99.43,0
21.248,-4.31,99.55,0
21.268,-4.19,99.55,0
21.288,-4.07,99.43,0
21.308,-3.95,99.55,0
21.328,-3.95,99.55,0
21.329,-3.95,99.43,0
21.349,-4.07,99.43,0
21.369,-4.07,99.43,0
21.389,-4.19,99.43,0
21.409,-4.07,99.43,0
21.429,-3.82,99.43,0
21.449,-3.82,99.43,0
21.469,-3.82,99.43,0
21.489,-3.82,99.43,0
21.509,-3.95,99.55,0
21.529,-3.95,99.43,0
21.549,-4.07,99.43,0
21.569,-3.82,99.43,0
21.589,-3.7,99.43,0
21.609,-3.82,99.43,0
21.629,-3.7,99.43,0
21.649,-3.82,99.43,0
21.669,-3.82,99.43,0
21.689,-3.82,99.43,0
21.709,-3.95,99.55,0
21.73,-3.7,99.43,0
21.75,-3.58,99.43,0
21.77,-3.58,99.43,0
21.79,-3.7,99.55,0
21.81,-3.95,99.43,0
21.83,-4.31,99.43,0
21.85,-5.54,99.43,0
21.87,-6.39,99.43,0
21.89,-6.88,99.43,0
21.91,-7.37,99.43,0
21.93,-8.35,99.55,0
21.95,-9.08,99.43,0
21.97,-9.45,99.43,0
21.99,-9.57,99.43,0
22.01,-9.69,99.43,0
22.03,-9.93,99.43,0
22.05,-9.93,99.43,0
22.07,-10.06,99.55,0
22.09,-10.06,99.43,0
22.11,-10.06,99.55,0
22.13,-9.93,99.55,0
22.13,-9.93,99.43,0
22.15,-10.06,99.43,0
22.17,-10.18,99.43,0
22.19,-10.06,99.43,0
22.21,-10.18,99.43,0
22.23,-10.06,99.43,0
22.25,-10.06,99.43,0
22.27,-10.06,99.43,0
22.29,-10.06,99.55,0
22.31,-10.06,99.43,0
22.33,-10.06,99.43,0
22.35,-10.06,99.43,0
22.37,-10.06,99.43,0
22.39,-10.06,99.43,0
22.41,-10.06,99.43,0
22.43,-10.06,99.43,0
22.45,-10.18,99.43,0
22.47,-10.18,99.43,0
22.49,-10.18,99.55,0
22.51,-10.18,99.55,1
22.53,-10.18,99.43,1
22.531,-10.18,99.43,1
22.551,-10.18,99.43,1
22.571,-10.18,99.43,1
22.591,-10.18,99.43,1
22.611,-10.18,99.43,1
22.632,-10.18,99.43,1
22.651,-10.18,99.43,1
22.671,-10.18,99.55,1
22.691,-10.18,99.43,1
22.711,-10.18,99.43,1
22.731,-10.18,99.43,1
22.751,-10.3,99.43,1
22.771,-10.3,99.43,1
22.791,-10.18,99.43,1
22.811,-9.69,99.43,1
22.831,-9.08,99.43,1
22.851,-8.59,99.43,1
22.871,-8.1,99.43,1
22.891,-7.37,99.43,1
22.911,-6.51,99.55,1
22.931,-6.15,99.43,1
22.951,-5.66,99.55,1
22.971,-5.05,99.55,1
22.991,-4.8,99.55,1
23.011,-4.68,99.43,1
23.031,-4.56,99.43,1
23.051,-4.56,99.43,1
23.071,-4.56,99.43,1
23.091,-4.68,99.43,1
23.111,-4.56,99.55,1
23.131,-4.07,99.43,1
23.151,-4.07,99.43,1
23.171,-4.07,99.43,0
23.191,-4.07,99.55,0
23.211,-4.07,99.43,0
23.231,-4.19,99.43,0
23.251,-4.31,99.43,0
23.271,-4.19,99.43,0
23.291,-4.07,99.43,0
23.311,-4.07,99.43,0
23.332,-4.07,99.55,0
23.352,-4.07,99.55,0
23.372,-4.07,99.43,0
23.392,-4.31,99.55,0
23.412,-4.31,99.55,0
23.432,-4.07,99.43,0
23.452,-3.82,99.55,0
23.472,-3.95,99.55,0
23.492,-3.95,99.43,0
23.512,-3.95,99.43,0
23.532,-3.95,99.43,0
23.552,-4.07,99.43,0
23.572,-4.07,99.43,0
23.592,-3.82,99.55,0
23.612,-3.82,99.55,0
23.632,-3.82,99.43,0
23.652,-3.82,99.43,0
23.672,-3.82,99.55,0
23.692,-3.82,99.43,0
23.712,-3.95,99.43,0
23.732,-3.82,99.43,0
23.752,-3.7,99.43,0
23.772,-3.58,99.43,0
23.792,-3.58,99.55,0
23.812,-3.7,99.43,0
23.832,-3.95,99.55,0
23.852,-4.92,99.55,0
23.872,-5.9,99.43,0
23.892,-6.63,99.43,0
23.912,-7.0,99.43,0
23.932,-7.73,99.43,0
23.952,-8.71,99.43,0
23.972,-9.2,99.43,0
23.992,-9.32,99.43,0
24.012,-9.57,99.55,0
24.032,-9.81,99.43,0
24.052,-9.93,99.55,0
24.072,-9.93,99.43,0
24.092,-10.06,99.43,0
24.112,-10.06,99.43,0
24.132,-10.06,99.43,0
24.152,-9.93,99.43,0
24.172,-10.06,99.43,0
24.192,-10.18,99.55,0
24.212,-10.18,99.43,0
24.232,-10.18,99.43,0
24.252,-10.18,99.43,0
24.272,-10.18,99.43,0
24.292,-10.06,99.43,0
24.312,-10.06,99.43,0
24.332,-10.18,99.55,0
24.352,-10.18,99.55,0
24.372,-10.18,99.43,0
24.392,-10.18,99.43,0
24.412,-10.06,99.43,0
24.432,-10.06,99.43,0
24.452,-10.06,99.43,0
24.472,-10.06,99.55,0
24.492,-10.18,99.43,0
24.512,-10.18,99.43,0
24.532,-10.18,99.43,1
24.533,-10.18,99.55,1
24.553,-10.18,99.43,1
24.573,-10.06,99.55,1
24.593,-10.06,99.43,1
24.613,-10.18,99.43,1
24.633,-10.18,99.43,1
24.653,-10.18,99.43,1
24.673,-10.18,99.43,1
24.693,-10.18,99.43,1
24.713,-10.18,99.55,1
24.733,-10.18,99.43,1
24.753,-10.18,99.43,1
24.773,-10.3,99.43,1
24.793,-10.3,99.43,1
24.813,-10.3,99.43,1
24.833,-10.06,99.43,1
24.853,-9.32,99.55,1
24.873,-8.71,99.43,1
24.893,-8.22,99.55,1
24.913,-7.73,99.43,1
24.933,-6.88,99.43,1
24.953,-6.27,99.55,1
24.973,-5.9,99.43,1
24.993,-5.41,99.43,1
25.013,-4.92,99.43,1
25.033,-4.8,99.43,1
25.053,-4.68,99.55,1
25.073,-4.56,99.55,1
25.093,-4.68,99.43,1
25.113,-4.68,99.43,1
25.133,-4.68,99.43,1
25.153,-4.31,99.55,1
25.173,-4.07,99.43,1
25.193,-4.07,99.43,0
25.213,-4.07,99.43,0
25.233,-4.07,99.55,0
25.253,-4.19,99.55,0
25.273,-4.19,99.55,0
25.293,-4.19,99.55,0
25.313,-4.07,99.43,0
25.333,-3.95,99.43,0
25.334,-3.95,99.55,0
25.354,-3.95,99.43,0
25.374,-4.07,99.43,0
25.394,-4.19,99.43,0
25.414,-4.19,99.43,0
25.434,-4.07,99.43,0
25.454,-3.82,99.55,0
25.474,-3.82,99.55,0
25.494,-3.95,99.55,0
25.514,-3.95,99.43,0
25.534,-4.07,99.43,0
25.554,-4.07,99.43,0
25.574,-4.19,99.43,0
25.594,-4.07,99.43,0
25.614,-3.95,99.43,0
25.634,-3.95,99.43,0
25.654,-3.95,99.43,0
25.674,-3.95,99.55,0
25.694,-3.95,99.55,0
25.714,-3.82,99.55,0
25.734,-3.82,99.43,0
25.754,-3.82,99.43,0
25.774,-3.7,99.43,0
25.794,-3.7,99.43,0
25.814,-3.82,99.43,0
25.834,-3.82,99.43,0
25.854,-4.31,99.55,0
25.874,-5.54,99.43,0
25.894,-6.39,99.43,0
25.914,-6.76,99.43,0
25.934,-7.25,99.43,0
25.954,-8.22,99.43,0
25.974,-8.96,99.43,0
25.994,-9.32,99.43,0
26.014,-9.45,99.43,0
26.034,-9.57,99.43,0
26.054,-9.81,99.43,0
26.074,-9.81,99.43,0
26.094,-9.93,99.55,0
26.114,-9.93,99.55,0
26.135,-9.93,99.43,0
26.155,-9.93,99.55,0
26.175,-9.93,99.43,0
26.195,-10.06,99.43,0
26.215,-10.06,99.43,0
26.235,-10.18,99.43,0
26.255,-10.18,99.43,0
26.275,-10.06,99.55,0
26.295,-10.06,99.43,0
26.315,-10.06,99.43,0
26.335,-10.06,99.43,0
26.355,-10.18,99.43,0
26.375,-10.18,99.43,0
26.395,-10.18,99.55,0
26.415,-10.18,99.43,0
26.435,-10.18,99.43,0
26.455,-10.06,99.43,0
26.475,-10.06,99.43,0
26.495,-10.18,99.43,0
26.515,-10.18,99.43,0
26.535,-10.18,99.43,0
26.555,-10.18,99.55,1
26.575,-10.18,99.43,1
26.595,-10.18,99.43,1
26.615,-10.18,99.55,1
26.635,-10.06,99.43,1
26.655,-10.18,99.43,1
26.675,-10.18,99.43,1
26.695,-10.18,99.55,1
26.715,-10.18,99.43,1
26.735,-10.18,99.43,1
26.755,-10.18,99.43,1
26.775,-10.18,99.43,1
26.795,-10.18,99.55,1
26.815,-10.3,99.55,1
26.835,-10.18,99.43,1
26.855,-10.18,99.43,1
26.875,-9.69,99.43,1
26.895,-9.08,99.43,1
26.915,-8.59,99.43,1
26.936,-8.1,99.43,1
26.956,-7.37,99.43,1
26.976,-6.63,99.43,1
26.996,-6.15,99.55,1
27.016,-5.78,99.55,1
27.036,-5.29,99.55,1
27.056,-4.92,99.55,1
27.076,-4.8,99.43,1
27.096,-4.68,99.43,1
27.116,-4.68,99.43,1
27.136,-4.56,99.43,1
27.156,-4.68,99.43,1
27.176,-4.68,99.43,1
27.196,-4.19,99.43,1
27.216,-4.07,99.43,1
27.236,-4.07,99.43,0
27.256,-4.07,99.55,0
27.276,-4.19,99.43,0
27.296,-4.19,99.43,0
27.316,-4.19,99.43,0
27.336,-4.19,99.43,0
27.336,-4.07,99.43,0
27.356,-3.95,99.43,0
27.376,-3.95,99.43,0
27.396,-3.95,99.43,0
27.416,-4.07,99.43,0
27.436,-4.07,99.43,0
27.456,-4.19,99.43,0
27.476,-4.07,99.43,0
27.496,-3.82,99.43,0
27.516,-3.82,99.43,0
27.536,-3.82,99.43,0
27.556,-3.82,99.43,0
27.576,-3.95,99.55,0
27.596,-4.07,99.43,0
27.616,-4.07,99.43,0
27.636,-3.95,99.55,0
27.656,-3.82,99.55,0
27.676,-3.82,99.43,0
27.696,-3.82,99.55,0
27.716,-3.82,99.43,0
27.736,-3.95,99.43,0
27.737,-4.07,99.43,0
27.757,-3.95,99.43,0
27.777,-3.82,99.43,0
27.797,-3.7,99.43,0
27.817,-3.7,99.43,0
27.837,-3.82,99.55,0
27.857,-3.95,99.55,0
27.877,-4.8,99.43,0
27.897,-5.9,99.43,0
27.917,-6.63,99.43,0
27.937,-7.0,99.43,0
27.957,-7.73,99.43,0
27.977,-8.71,99.43,0
27.997,-9.2,99.43,0
28.017,-9.45,99.43,0
28.037,-9.57,99.55,0
28.057,-9.69,99.55,0
28.077,-9.93,99.43,0
28.097,-9.93,99.43,0
28.117,-9.93,99.43,0
28.137,-9.93,99.43,0
28.138,-9.93,99.43,0
28.158,-9.93,99.43,0
28.178,-9.93,99.43,0
28.198,-10.06,99.43,0
28.218,-10.06,99.55,0
28.238,-10.06,99.43,0
28.258,-10.06,99.43,0
28.278,-10.06,99.43,0
28.298,-10.06,99.55,0
28.318,-10.06,99.43,0
28.338,-10.06,99.55,0
28.358,-10.18,99.43,0
28.378,-10.18,99.43,0
28.398,-10.18,99.43,0
28.418,-10.18,99.43,0
28.438,-10.06,99.43,0
28.458,-10.06,99.43,0
28.478,-10.06,99.43,0
28.498,-10.18,99.55,0
28.518,-10.18,99.43,0
28.538,-10.18,99.43,0
28.538,-10.18,99.43,1
28.558,-10.18,99.43,1
28.578,-10.18,99.43,1
28.598,-10.18,99.55,1
28.618,-10.18,99.55,1
28.638,-10.18,99.43,1
28.658,-10.18,99.43,1
28.678,-10.18,99.43,1
28.698,-10.18,99.43,1
28.718,-10.18,99.43,1
28.738,-10.18,99.43,1
28.758,-10.18,99.55,1
28.778,-10.18,99.43,1
28.798,-10.18,99.43,1
28.818,-10.18,99.55,1
28.838,-10.18,99.43,1
28.858,-9.45,99.43,1
28.878,-8.96,99.43,1
28.898,-8.35,99.55,1
28.918,-7.86,99.43,1
28.938,-7.12,99.43,1
28.939,-6.51,99.43,1
28.959,-5.9,99.43,1
28.979,-5.54,99.43,1
28.999,-5.05,99.43,1
29.019,-4.8,99.55,1
29.039,-4.68,99.43,1
29.059,-4.56,99.43,1
29.079,-4.56,99.55,1
29.099,-4.68,99.55,1
29.119,-4.68,99.43,1
29.139,-4.44,99.43,1
29.159,-4.19,99.43,1
29.179,-4.07,99.43,1
29.199,-4.07,99.43,0
29.219,-4.07,99.43,0
29.239,-4.19,99.43,0
29.259,-4.31,99.43,0
29.279,-4.31,99.43,0
29.299,-4.19,99.55,0
29.319,-4.07,99.43,0
29.339,-3.95,99.55,0
29.359,-3.95,99.55,0
29.379,-4.07,99.43,0
29.399,-4.19,99.43,0
29.419,-4.19,99.55,0
29.439,-4.19,99.43,0
29.459,-3.95,99.43,0
29.479,-3.82,99.43,0
29.499,-3.82,99.43,0
29.519,-3.95,99.43,0
29.539,-3.95,99.55,0
29.559,-4.07,99.43,0
29.579,-4.07,99.43,0
29.599,-3.95,99.43,0
29.619,-3.82,99.43,0
29.639,-3.82,99.43,0
29.659,-3.82,99.43,0
29.679,-3.82,99.43,0
29.699,-3.7,99.55,0
29.719,-3.82,99.43,0
29.739,-3.82,99.55,0
29.74,-3.82,99.55,0
29.76,-3.7,99.43,0
29.78,-3.7,99.43,0
29.8,-3.7,99.43,0
29.82,-3.82,99.43,0
29.84,-4.07,99.43,0
29.86,-5.29,99.43,0
29.88,-6.27,99.43,0
29.9,-6.76,99.43,0
29.92,-7.25,99.43,0
29.94,-8.1,99.43,0
29.96,-8.96,99.43,0
29.98,-9.32,99.43,0
30.0,-9.57,99.43,0
30.02,-9.69,99.43,0
30.04,-9.81,99.43,0
30.06,-9.93,99.43,0
30.08,-9.93,99.43,0
30.1,-10.06,99.43,0
30.12,-9.93,99.55,0
30.14,-9.93,99.43,0
30.16,-9.93,99.43,0
30.18,-10.06,99.43,0
30.2,-10.06,99.43,0
30.22,-10.18,99.43,0
30.24,-10.06,99.43,0
30.26,-10.06,99.43,0
30.28,-10.06,99.43,0
30.301,-10.06,99.43,0
30.32,-10.06,99.43,0
30.34,-10.18,99.43,0
30.36,-10.06,99.43,0
30.38,-10.06,99.43,0
30.4,-10.06,99.55,0
30.42,-10.06,99.55,0
30.44,-10.06,99.43,0
30.46,-10.06,99.43,0
30.48,-10.06,99.43,0
30.5,-10.18,99.43,0
30.52,-10.18,99.43,0
30.541,-10.18,99.55,1
30.561,-10.18,99.55,1
30.581,-10.18,99.43,1
30.601,-10.18,99.43,1
30.621,-10.18,99.55,1
30.641,-10.18,99.43,1
30.661,-10.18,99.55,1
30.681,-10.18,99.43,1
30.701,-10.3,99.55,1
30.721,-10.18,99.43,1
30.741,-10.18,99.43,1
30.761,-10.18,99.43,1
30.782,-10.18,99.43,1
30.801,-10.18,99.43,1
30.821,-10.3,99.55,1
30.841,-10.3,99.55,1
30.861,-9.93,99.43,1
30.881,-9.32,99.43,1
30.901,-8.71,99.43,1
30.921,-8.22,99.43,1
30.941,-7.61,99.43,1
30.961,-6.76,99.43,1
30.981,-6.27,99.55,1
31.001,-5.78,99.55,1
31.021,-5.41,99.55,1
31.041,-4.92,99.55,1
31.061,-4.8,99.43,1
31.081,-4.68,99.43,1
31.101,-4.56,99.43,1
31.121,-4.56,99.43,1
31.141,-4.56,99.43,1
31.161,-4.56,99.43,1
31.181,-4.31,99.55,1
31.201,-4.07,99.55,1
31.221,-4.07,99.43,0
31.241,-4.07,99.55,0
31.261,-4.07,99.43,0
31.281,-4.07,99.43,0
31.301,-4.19,99.43,0
31.321,-4.19,99.43,0
31.341,-4.07,99.43,0
31.341,-4.07,99.43,0
31.361,-3.95,99.43,0
31.381,-4.07,99.55,0
31.401,-4.07,99.55,0
31.421,-4.19,99.55,0
31.441,-4.31,99.55,0
31.461,-4.19,99.43,0
31.481,-3.95,99.43,0
31.501,-3.95,99.43,0
31.521,-3.95,99.43,0
31.541,-3.95,99.43,0
31.561,-4.07,99.55,0
31.581,-4.19,99.43,0
31.601,-4.07,99.43,0
31.621,-4.07,99.55,0
31.641,-3.95,99.55,0
31.661,-3.82,99.55,0
31.681,-3.82,99.43,0
31.701,-3.82,99.55,0
31.721,-3.82,99.43,0
31.741,-3.95,99.43,0
31.742,-3.95,99.43,0
31.762,-3.82,99.55,0
31.782,-3.7,99.43,0
31.802,-3.58,99.55,0
31.822,-3.7,99.55,0
31.842,-3.82,99.55,0
31.862,-4.44,99.43,0
31.882,-5.54,99.55,0
31.902,,,
31.922,-6.39,99.43,0
31.942,-6.88,99.43,0
31.962,-7.37,99.43,0
31.982,-8.47,99.55,0
32.002,-9.08,99.43,0
32.022,-9.45,99.55,0
32.042,-9.45,99.55,0
32.062,-9.69,99.55,0
32.082,-9.93,99.55,0
32.102,,,
32.122,-9.93,99.55,0
32.142,-9.93,99.43,0
32.162,-10.06,99.43,0
32.182,-10.06,99.55,0
32.202,-10.06,99.43,0
32.222,-10.06,99.43,0
32.242,-10.18,99.55,0
32.262,-10.18,99.43,0
32.283,-10.18,99.43,0
32.304,,,
32.322,-10.06,99.43,0
32.342,-10.06,99.43,0
32.362,-10.06,99.55,0
32.382,-10.06,99.55,0
32.402,-10.18,99.55,0
32.422,-10.18,99.55,0
32.443,-10.18,99.43,0
32.463,,,
32.482,-10.18,99.43,0
32.502,-10.06,99.43,0
32.522,-10.06,99.43,0
32.543,-10.06,99.43,0
32.563,-10.06,99.55,0
32.583,-10.18,99.55,0
32.603,-10.18,99.55,0
32.627,-10.18,99.43,0
32.648,-10.18,99.43,1
32.672,-10.18,99.43,1
32.693,,,
32.703,-10.18,99.43,1
32.723,-10.06,99.43,1
32.743,-10.18,99.43,1
32.763,-10.18,99.43,1
32.787,-10.18,99.43,1
32.808,,,
32.823,-10.18,99.43,1
32.843,-10.18,99.55,1
32.863,-10.18,99.55,1
32.883,-10.18,99.55,1
32.903,-10.18,99.43,1
32.923,,,
32.943,-10.3,99.43,1
32.947,-10.3,99.43,1
32.971,-10.3,99.43,1
32.992,-10.18,99.43,1
33.016,-9.57,99.55,1
33.037,-8.96,99.55,1
33.058,,,
33.067,-8.47,99.55,1
33.087,-7.98,99.43,1
33.107,-7.12,99.43,1
33.127,-6.51,99.43,1
33.147,-6.02,99.43,1
33.168,-5.66,99.43,1
33.188,,,
33.207,-5.17,99.55,1
33.227,-4.8,99.43,1
33.247,-4.68,99.43,1
33.267,-4.56,99.55,1
33.287,-4.56,99.55,1
33.307,-4.56,99.43,1
33.327,-4.68,99.43,1
33.347,-4.56,99.43,1
33.367,-4.31,99.43,1
33.389,-4.07,99.43,1
33.41,-4.07,99.43,0
33.43,-4.07,99.55,0
33.454,-4.07,99.55,0
33.475,-4.19,99.55,0
33.496,-4.19,99.43,0
33.52,-4.19,99.43,0
33.54,-4.07,99.43,0
33.561,-3.95,99.55,0
33.585,-3.95,99.43,0
33.606,-3.95,99.43,0
33.626,,,
33.627,,,
33.647,-4.07,99.55,0
33.667,-4.31,99.43,0
33.687,-4.19,99.43,0
33.707,-4.07,99.55,0
33.727,-3.95,99.43,0
33.747,-3.95,99.43,0
33.767,-3.95,99.43,0
33.787,-3.95,99.55,0
33.807,-4.07,99.43,0
33.827,-4.19,99.43,0
33.848,-4.19,99.43,0
33.868,-4.07,99.43,0
33.889,,,
33.907,-3.95,99.43,0
33.927,-3.95,99.43,0
33.947,-3.95,99.55,0
33.967,-3.82,99.55,0
33.987,-4.07,99.43,0
34.007,-3.95,99.43,0
34.027,-3.95,99.43,0
34.047,-3.82,99.43,0
34.067,-3.7,99.43,0
34.087,,,
34.107,-3.7,99.43,0
34.127,-3.82,99.43,0
34.148,-4.07,99.43,0
34.168,-5.17,99.55,0
34.188,-6.15,99.55,0
34.208,-6.76,99.43,0
34.228,-7.12,99.43,0
34.248,-7.98,99.43,0
34.268,-8.83,99.43,0
34.288,-9.2,99.55,0
34.308,-9.32,99.43,0
34.328,-9.57,99.43,0
34.348,,,
34.368,-9.81,99.43,0
34.388,-9.81,99.55,0
34.408,-9.93,99.55,0
34.428,-9.93,99.55,0
34.448,-9.93,99.43,0
34.468,-9.93,99.43,0
34.488,-9.93,99.43,0
34.508,-10.06,99.43,0
34.528,-10.06,99.43,0
34.548,-10.18,99.43,0
34.572,-10.18,99.55,0
34.593,-10.06,99.55,0
34.618,-10.18,99.55,0
34.638,,,
34.648,-10.06,99.43,0
34.668,-10.06,99.43,0
34.688,-10.18,99.43,0
34.708,-10.18,99.43,0
34.732,-10.18,99.55,0
34.753,,,
34.768,-10.18,99.55,0
34.788,-10.06,99.55,0
34.808,-10.18,99.43,0
34.828,-10.06,99.43,0
34.848,-10.06,99.43,0
34.868,,,
34.888,-10.18,99.43,0
34.908,-10.18,99.43,0
34.928,-10.18,99.55,1
34.949,-10.18,99.43,1
34.969,-10.18,99.43,1
34.989,-10.18,99.55,1
35.009,-10.06,99.43,1
35.031,-10.06,99.43,1
35.052,-10.18,99.43,1
35.076,-10.18,99.43,1
35.097,,,
35.11,-10.18,99.43,1
35.129,-10.18,99.43,1
35.149,-10.18,99.43,1
35.169,-10.18,99.43,1
35.191,-10.18,99.43,1
35.212,,,
35.229,-10.18,99.55,1
35.249,-10.3,99.43,1
35.269,-10.3,99.43,1
35.289,-9.93,99.43,1
35.309,-9.32,99.43,1
35.329,-8.83,99.43,1
35.349,-8.35,99.43,1
35.369,,,
35.389,-7.73,99.43,1
35.409,-6.88,99.55,1
35.429,-6.27,99.55,1
35.449,-5.9,99.43,1
35.469,-5.41,99.55,1
35.489,-5.05,99.55,1
35.509,-4.8,99.43,1
35.529,-4.68,99.43,1
35.549,-4.68,99.43,1
35.569,-4.56,99.43,1
35.589,-4.68,99.43,1
35.609,-4.68,99.43,1
35.633,-4.44,99.55,1
35.654,-4.19,99.55,1
35.674,-4.07,99.55,1
35.699,-3.95,99.55,0
35.72,-4.07,99.43,0
35.74,-4.19,99.43,0
35.765,-4.19,99.43,0
35.785,-4.07,99.43,0
35.806,-4.07,99.43,0
35.83,-4.07,99.43,0
35.851,-3.95,99.55,0
35.871,,,
35.885,-3.95,99.43,0
35.905,-3.95,99.43,0
35.925,-4.07,99.55,0
35.945,-4.07,99.43,0
35.965,-3.95,99.43,0
35.985,-3.95,99.55,0
36.005,,,
36.025,-3.82,99.43,0
36.045,-3.7,99.43,0
36.065,-3.7,99.43,0
36.085,-3.82,99.43,0
36.105,-3.95,99.55,0
36.125,-3.95,99.55,0
36.145,-3.95,99.43,0
36.165,-3.95,99.43,0
36.185,-3.82,99.43,0
36.205,-3.7,99.43,0
36.225,-3.82,99.43,0
36.245,-3.82,99.43,0
36.265,,,
36.285,-3.82,99.43,0
36.305,-3.82,99.55,0
36.325,-3.82,99.43,0
36.345,-3.82,99.43,0
36.365,-3.7,99.43,0
36.385,-3.7,99.55,0
36.405,-3.82,99.43,0
36.425,-4.31,99.43,0
36.445,-5.54,99.43,0
36.465,-6.39,99.43,0
36.485,-6.88,99.43,0
36.506,-7.37,99.43,0
36.526,,,
36.545,-8.47,99.43,0
36.565,-9.08,99.55,0
36.572,-9.45,99.43,0
36.592,,,
36.612,-9.57,99.43,0
36.632,-9.69,99.43,0
36.652,-9.81,99.43,0
36.672,-9.93,99.43,0
36.692,-9.93,99.43,0
36.712,-10.06,99.43,0
36.732,-9.93,99.43,0
36.752,-9.93,99.43,0
36.772,,,
36.792,-10.06,99.55,0
36.812,-10.06,99.55,0
36.832,-10.18,99.55,0
36.852,-10.18,99.43,0
36.872,-10.18,99.43,0
36.892,-10.06,99.43,0
36.912,-10.18,99.43,0
36.932,-10.06,99.43,0
36.952,-10.18,99.55,0
36.977,-10.18,99.43,0
36.998,,,
37.017,-10.18,99.43,0
37.037,-10.18,99.55,0
37.057,-10.18,99.43,0
37.077,-10.06,99.43,0
37.097,-10.18,99.55,0
37.117,-10.18,99.55,0
37.137,-10.18,99.43,0
37.161,-10.18,99.43,0
37.182,-10.18,99.43,0
37.206,-10.18,99.43,1
37.227,,,
37.237,-10.18,99.43,1
37.257,-10.18,99.55,1
37.277,-10.18,99.55,1
37.297,-10.18,99.43,1
37.321,-10.18,99.55,1
37.341,,,
37.357,-10.18,99.55,1
37.377,-10.18,99.43,1
37.387,,,
37.407,-10.18,99.55,1
37.427,-10.18,99.55,1
37.447,-10.18,99.43,1
37.467,-10.3,99.43,1
37.487,-10.3,99.43,1
37.507,-10.3,99.43,1
37.527,-10.3,99.55,1
37.55,-10.3,99.43,1
37.571,-9.81,99.55,1
37.595,-9.2,99.43,1
37.616,-8.59,99.55,1
37.636,,,
37.647,-8.1,99.55,1
37.667,-7.37,99.43,1
37.687,-6.51,99.43,1
37.707,-6.15,99.43,1
37.727,-5.54,99.43,1
37.747,-5.17,99.43,1
37.767,,,
37.787,-4.92,99.43,1
37.807,-4.68,99.43,1
37.827,-4.56,99.55,1
37.847,-4.56,99.43,1
37.867,-4.56,99.43,1
37.887,-4.56,99.43,1
37.907,-4.44,99.43,1
37.927,-4.19,99.43,1
37.947,-4.07,99.55,1
37.967,,,
37.987,-3.95,99.43,0
38.007,-3.95,99.43,0
38.027,-3.95,99.55,0
38.047,-4.19,99.55,0
38.067,-4.07,99.55,0
38.087,-4.07,99.55,0
38.107,-3.95,99.43,0
38.127,-3.95,99.43,0
38.147,-3.95,99.43,0
38.167,-3.82,99.43,0
38.187,-3.95,99.43,0
38.206,-4.07,99.43,0
38.226,,,
38.246,-4.07,99.55,0
38.266,-3.95,99.43,0
38.286,-3.95,99.43,0
38.306,-3.82,99.43,0
38.326,-3.82,99.43,0
38.346,-3.82,99.43,0
38.366,-3.82,99.43,0
38.386,-4.07,99.43,0
38.406,-3.95,99.43,0
38.427,-3.95,99.43,0
38.447,-3.95,99.55,0
38.468,-3.95,99.43,0
38.492,-3.82,99.55,0
38.513,-3.82,99.55,0
38.533,-3.82,99.55,0
38.558,-3.82,99.43,0
38.578,-3.82,99.55,0
38.599,-3.82,99.43,0
38.624,-3.7,99.43,0
38.644,-3.7,99.43,0
38.664,-3.7,99.43,0
38.689,-3.82,99.55,0
38.71,-4.92,99.55,0
38.73,,,
38.744,-5.9,99.43,0
38.764,-6.63,99.55,0
38.784,-7.0,99.55,0
38.804,-7.86,99.43,0
38.824,-8.83,99.43,0
38.844,-9.2,99.43,0
38.864,,,
38.884,-9.57,99.43,0
38.904,-9.69,99.43,0
38.924,-9.81,99.43,0
38.944,-9.93,99.43,0
38.964,-9.93,99.43,0
38.984,-10.06,99.55,0
39.004,-9.93,99.43,0
39.025,-10.06,99.43,0
39.045,-10.06,99.43,0
39.065,-10.06,99.43,0
39.086,-10.18,99.43,0
39.107,,,
39.125,-10.18,99.43,0
39.145,-10.18,99.55,0
39.165,-10.18,99.55,0
39.185,-10.06,99.43,0
39.205,-10.18,99.43,0
39.225,,,
39.245,-10.18,99.43,0
39.265,-10.18,99.43,0
39.285,-10.18,99.43,0
39.305,-10.18,99.43,0
39.325,-10.18,99.43,0
39.345,-10.18,99.43,0
39.365,-10.18,99.43,0
39.385,,,
39.405,-10.18,99.43,0
39.425,-10.18,99.43,0
39.43,-10.18,99.55,0
39.451,-10.18,99.43,0
39.475,-10.18,99.43,1
39.496,,,
39.51,-10.18,99.43,1
39.53,-10.18,99.43,1
39.55,-10.18,99.43,1
39.57,-10.18,99.43,1
39.59,-10.18,99.55,1
39.611,,,
39.63,-10.18,99.43,1
39.65,-10.18,99.43,1
39.67,-10.18,99.43,1
39.69,-10.18,99.43,1
39.71,-10.18,99.43,1
39.73,-10.18,99.43,1
39.75,-10.3,99.55,1
39.774,-10.18,99.55,1
39.795,-10.3,99.43,1
39.819,-10.3,99.43,1
39.84,,,
39.86,-10.06,99.43,1
39.88,-9.32,99.43,1
39.9,-8.71,99.43,1
39.92,-8.35,99.43,1
39.94,-7.73,99.43,1
39.96,-6.88,99.43,1
39.98,-6.27,99.43,1
40.0,-5.9,99.43,1
40.02,-5.41,99.43,1
40.041,-5.05,99.43,1
40.061,-4.8,99.43,1
40.082,,,
40.1,-4.68,99.43,1
40.12,-4.68,99.43,1
40.141,-4.56,99.55,1
40.16,-4.68,99.55,1
40.18,-4.68,99.55,1
40.2,-4.31,99.55,1
40.22,-4.31,99.43,1
40.241,-4.19,99.43,1
40.261,-4.07,99.43,0
40.281,,,
40.301,-4.07,99.43,0
40.321,-4.19,99.43,0
40.341,-4.31,99.43,0
40.361,-4.31,99.43,0
40.381,-4.19,99.55,0
40.401,-4.19,99.55,0
40.421,-4.07,99.55,0
40.441,-4.07,99.43,0
40.461,-4.07,99.43,0
40.481,-4.07,99.43,0
40.501,-4.31,99.43,0
40.521,-4.19,99.43,0
40.541,,,
40.561,-4.07,99.43,0
40.581,-4.07,99.55,0
40.601,-3.95,99.55,0
40.621,-3.95,99.43,0
