Time (s),Pressure 1 (kPa),Pressure 2 (kPa),Switch State
0.089,-7.49,99.55,1
0.109,-7.49,99.55,1
0.129,-7.49,99.55,1
0.149,-7.49,99.43,1
0.169,-7.49,99.55,1
0.189,-7.49,99.43,1
0.209,-7.49,99.55,1
0.229,-7.49,99.55,1
0.249,-7.49,99.55,1
0.269,-7.49,99.55,1
0.289,-7.49,99.55,1
0.309,-7.49,99.55,1
0.329,-7.49,99.43,1
0.349,-7.49,99.55,1
0.369,-7.49,99.55,1
0.389,-7.49,99.55,1
0.409,-7.49,99.55,1
0.429,-7.49,99.55,1
0.449,-7.49,99.55,1
0.469,-7.49,99.55,1
0.49,-7.49,99.55,1
0.51,-7.49,99.55,1
0.53,-7.49,99.55,1
0.55,-7.49,99.55,1
0.57,-7.49,99.55,1
0.59,-7.49,99.55,1
0.61,-7.49,99.55,1
0.63,-7.49,99.55,1
0.65,-7.49,99.55,1
0.67,-7.49,99.55,1
0.69,-7.49,99.55,1
0.71,-7.49,99.55,1
0.73,-7.49,99.55,1
0.75,-7.49,99.55,1
0.77,-7.49,99.55,1
0.79,-7.49,99.43,1
0.81,-7.49,99.55,1
0.83,-7.49,99.55,1
0.85,-7.49,99.55,1
0.87,-7.49,99.43,1
0.89,-7.49,99.43,1
0.91,-7.49,99.43,1
0.93,-7.49,99.43,1
0.95,-7.49,99.55,1
0.97,-7.49,99.43,1
0.99,-7.49,99.43,1
1.01,-7.49,99.43,1
1.03,-7.49,99.43,1
1.051,-7.49,99.55,1
1.07,-7.49,99.43,1
1.09,-7.49,99.43,1
1.11,-7.49,99.43,1
1.13,-7.49,99.43,1
1.15,-7.49,99.43,1
1.17,-7.49,99.55,1
1.19,-7.49,99.43,1
1.21,-7.49,99.43,1
1.23,-7.49,99.43,1
1.25,-7.49,99.55,1
1.27,-7.49,99.55,1
1.29,-7.49,99.55,1
1.31,-7.49,99.55,1
1.33,-7.49,99.55,1
1.35,-7.49,99.55,1
1.37,-7.49,99.43,1
1.39,-7.49,99.55,1
1.41,-7.49,99.43,1
1.43,-7.49,99.43,1
1.45,-7.49,99.43,1
1.47,-7.49,99.43,1
1.49,-7.49,99.43,1
1.51,-7.49,99.43,1
1.53,-7.49,99.43,1
1.55,-7.49,99.43,1
1.57,-7.49,99.43,1
1.59,-7.49,99.43,1
1.61,-7.49,99.55,1
1.63,-7.49,99.43,1
1.65,-7.49,99.43,1
1.67,-7.49,99.55,1
1.691,-7.49,99.43,1
1.711,-7.49,99.43,1
1.731,-7.49,99.55,1
1.751,-7.49,99.43,1
1.771,-7.49,99.55,1
1.791,-7.49,99.55,1
1.811,-7.49,99.43,1
1.831,-7.49,99.55,1
1.851,-7.49,99.55,1
1.871,-7.49,99.55,1
1.891,-7.49,99.55,1
1.911,-7.49,99.55,1
1.931,-7.49,99.43,1
1.951,-7.49,99.43,1
1.971,-7.49,99.43,1
1.991,-7.49,99.43,1
2.011,-7.49,99.43,1
2.031,-7.49,99.43,1
2.051,-7.49,99.55,1
2.071,-7.49,99.43,1
2.091,-7.49,99.43,1
2.111,-7.49,99.43,1
2.131,-7.49,99.43,1
2.151,-7.49,99.43,1
2.171,-7.49,99.43,1
2.191,-7.49,99.43,1
2.211,-7.49,99.43,1
2.231,-7.49,99.55,1
2.251,-7.49,99.55,1
2.271,-7.49,99.55,1
2.291,-7.49,99.55,1
2.311,-7.49,99.55,1
2.331,-7.49,99.55,1
2.351,-7.49,99.55,1
2.371,-7.49,99.55,1
2.391,-7.49,99.55,1
2.411,-7.49,99.43,1
2.431,-7.49,99.43,1
2.451,-7.49,99.43,1
2.471,-7.49,99.43,1
2.492,-7.49,99.43,1
2.512,-7.49,99.43,1
2.532,-7.49,99.55,1
2.552,-7.49,99.43,1
2.572,-7.49,99.43,1
2.592,-7.49,99.43,1
2.612,-7.49,99.43,1
2.632,-7.49,99.55,1
2.652,-7.49,99.43,1
2.672,-7.49,99.43,1
2.692,-7.49,99.43,1
2.712,-7.49,99.43,1
2.732,-7.49,99.55,1
2.752,-7.49,99.55,1
2.772,-7.49,99.55,1
2.792,-7.49,99.55,1
2.812,-7.49,99.55,1
2.832,-7.49,99.55,1
2.852,-7.49,99.55,1
2.872,-7.49,99.55,1
2.892,-7.49,99.43,1
2.912,-7.49,99.43,1
2.932,-7.49,99.43,1
2.952,-7.49,99.43,1
2.972,-7.49,99.43,1
2.992,-7.49,99.43,1
3.012,-7.49,99.43,1
3.032,-7.49,99.43,1
3.052,-7.49,99.43,1
3.072,-7.49,99.43,1
3.092,-7.49,99.55,1
3.112,-7.49,99.43,1
3.132,-7.49,99.43,1
3.152,-7.49,99.43,1
3.172,-7.49,99.55,1
3.192,-7.49,99.55,1
3.212,-7.49,99.55,1
3.232,-7.49,99.43,1
3.252,-7.49,99.55,1
3.272,-7.49,99.55,1
3.292,-7.49,99.55,1
3.293,-7.49,99.55,1
3.313,-7.49,99.43,1
3.333,-7.49,99.43,1
3.353,-7.49,99.43,1
3.373,-7.37,99.43,1
3.393,-7.12,99.43,1
3.413,-7.12,99.43,1
3.433,-7.25,99.43,1
3.453,-7.25,99.43,1
3.473,-7.37,99.43,1
3.493,-7.37,99.43,1
3.513,-7.37,99.43,1
3.533,-7.37,99.43,1
3.553,-7.49,99.43,1
3.573,-7.37,99.43,1
3.593,-7.37,99.43,1
3.613,-7.49,99.43,1
3.633,-7.49,99.55,1
3.653,-7.49,99.43,1
3.673,-7.49,99.55,1
3.693,-7.49,99.55,1
3.713,-7.49,99.55,1
3.733,-7.49,99.55,1
3.753,-7.49,99.43,1
3.773,-7.49,99.55,1
3.793,-7.49,99.43,1
3.813,-7.49,99.55,1
3.833,-7.49,99.43,1
3.853,-7.49,99.43,1
3.873,-7.49,99.43,1
3.893,-7.49,99.43,1
3.913,-7.49,99.43,1
3.933,-7.49,99.43,1
3.953,-7.49,99.43,1
3.973,-7.49,99.43,1
3.993,-7.49,99.43,1
4.013,-7.49,99.43,1
4.033,-7.49,99.43,1
4.053,-7.49,99.55,1
4.073,-7.49,99.43,1
4.093,-7.49,99.43,1
4.094,-7.49,99.43,1
4.114,-7.49,99.55,1
4.134,-7.49,99.55,1
4.154,-7.49,99.55,1
4.174,-7.49,99.43,1
4.194,-7.49,99.43,1
4.214,-7.49,99.55,1
4.234,-7.49,99.43,1
4.254,-7.49,99.55,1
4.274,-7.49,99.43,1
4.294,-7.49,99.43,1
4.314,-7.49,99.43,1
4.334,-7.49,99.43,1
4.354,-7.49,99.43,1
4.374,-7.49,99.43,1
4.394,-7.49,99.43,1
4.414,-7.49,99.43,1
4.434,-7.49,99.43,1
4.454,-7.49,99.43,1
4.474,-7.49,99.43,1
4.494,-7.49,99.43,1
4.495,-7.49,99.43,1
4.515,-7.49,99.43,1
4.535,-7.49,99.43,1
4.555,-7.49,99.55,1
4.575,-7.49,99.55,1
4.595,-7.12,99.55,1
4.615,-6.51,99.55,1
4.635,-5.9,99.55,1
4.655,-5.41,99.55,1
4.675,-5.17,99.55,1
4.695,-4.8,99.43,1
4.715,-4.68,99.43,1
4.735,-4.56,99.43,1
4.755,-4.44,99.43,1
4.775,-4.31,99.43,1
4.795,-4.19,99.43,1
4.815,-4.19,99.43,1
4.835,-4.19,99.43,1
4.855,-4.07,99.43,1
4.875,-4.07,99.43,1
4.895,-4.07,99.43,1
4.915,-4.07,99.43,1
4.935,-3.95,99.43,0
4.955,-3.95,99.55,0
4.975,-3.95,99.55,0
4.995,-3.95,99.55,0
5.015,-3.82,99.55,0
5.035,-3.82,99.43,0
5.055,-3.82,99.55,0
5.075,-3.7,99.55,0
5.095,-3.82,99.55,0
5.115,-3.82,99.55,0
5.135,-3.82,99.55,0
5.155,-3.82,99.43,0
5.175,-3.82,99.43,0
5.195,-3.82,99.43,0
5.215,-3.82,99.43,0
5.235,-3.82,99.43,0
5.255,-3.7,99.43,0
5.275,-3.7,99.43,0
5.295,-3.7,99.43,0
5.296,-3.7,99.43,0
5.316,-3.7,99.43,0
5.336,-3.58,99.43,0
5.356,-3.7,99.43,0
5.376,-3.7,99.43,0
5.396,-3.7,99.43,0
5.416,-3.7,99.55,0
5.436,-3.7,99.43,0
5.456,-3.58,99.43,0
5.476,-3.58,99.55,0
5.496,-3.58,99.55,0
5.516,-3.58,99.55,0
5.536,-3.58,99.43,0
5.556,-3.58,99.55,0
5.576,-3.58,99.43,0
5.596,-3.58,99.43,0
5.616,-3.58,99.43,0
5.636,-3.58,99.43,0
5.656,-4.44,99.43,0
5.676,-5.66,99.43,0
5.696,-6.39,99.43,0
5.696,-6.76,99.55,0
5.716,-7.61,99.43,0
5.736,-8.59,99.43,0
5.756,-9.08,99.43,0
5.776,-9.32,99.55,0
5.796,-9.57,99.43,0
5.816,-9.69,99.43,0
5.836,-9.81,99.43,0
5.856,-9.81,99.43,0
5.876,-9.93,99.43,0
5.896,-9.93,99.43,0
5.916,-9.93,99.43,0
5.936,-9.93,99.43,0
5.956,-10.06,99.55,0
5.976,-10.06,99.55,0
5.996,-10.06,99.43,0
6.016,-10.06,99.55,0
6.036,-10.06,99.55,0
6.056,-10.06,99.43,0
6.076,-10.06,99.43,0
6.097,-10.06,99.43,0
6.117,-10.18,99.43,0
6.137,-10.06,99.55,0
6.157,-10.06,99.43,0
6.177,-10.18,99.55,0
6.197,-10.18,99.55,0
6.217,-10.18,99.43,0
6.237,-10.18,99.43,0
6.257,-10.18,99.43,0
6.277,-10.18,99.43,0
6.297,-10.18,99.43,0
6.317,-10.18,99.43,0
6.337,-10.18,99.43,0
6.357,-10.18,99.43,0
6.377,-10.18,99.43,0
6.397,-10.18,99.43,1
6.417,-10.18,99.43,1
6.437,-10.18,99.43,1
6.457,-10.18,99.43,1
6.477,-10.18,99.43,1
6.497,-10.18,99.43,1
6.497,-10.18,99.43,1
6.517,-10.3,99.55,1
6.537,-10.18,99.43,1
6.557,-10.3,99.55,1
6.577,-10.3,99.55,1
6.597,-10.3,99.55,1
6.617,-10.3,99.43,1
6.637,-10.3,99.55,1
6.657,-10.3,99.43,1
6.677,-9.81,99.43,1
6.697,-9.2,99.43,1
6.717,-8.71,99.43,1
6.737,-8.22,99.43,1
6.757,-7.49,99.43,1
6.777,-6.63,99.43,1
6.797,-6.02,99.43,1
6.817,-5.66,99.43,1
6.837,-5.29,99.55,1
6.857,-4.92,99.43,1
6.877,-4.8,99.55,1
6.897,-4.68,99.43,1
6.898,-4.56,99.43,1
6.918,-4.44,99.43,1
6.938,-4.44,99.43,1
6.958,-4.44,99.43,1
6.978,-4.31,99.55,1
6.998,-4.19,99.43,1
7.018,-4.07,99.43,0
7.038,-4.07,99.43,0
7.058,-4.07,99.43,0
7.078,-4.07,99.43,0
7.098,-3.95,99.55,0
7.118,-3.95,99.43,0
7.138,-3.95,99.43,0
7.158,-3.82,99.43,0
7.178,-3.82,99.43,0
7.198,-3.82,99.43,0
7.218,-3.95,99.43,0
7.238,-3.95,99.43,0
7.258,-3.95,99.43,0
7.278,-3.95,99.43,0
7.298,-3.95,99.43,0
7.318,-3.82,99.43,0
7.338,-3.82,99.43,0
7.358,-3.7,99.55,0
7.378,-3.7,99.55,0
7.398,-3.7,99.55,0
7.418,-3.7,99.55,0
7.438,-3.7,99.55,0
7.458,-3.7,99.43,0
7.478,-3.7,99.55,0
7.498,-3.7,99.55,0
7.518,-3.7,99.43,0
7.538,-3.58,99.43,0
7.558,-3.58,99.43,0
7.578,-3.58,99.43,0
7.598,-3.7,99.43,0
7.618,-3.58,99.43,0
7.638,-3.58,99.43,0
7.658,-3.58,99.43,0
7.678,-3.58,99.43,0
7.698,-3.58,99.43,0
7.718,-3.58,99.43,0
7.738,-3.7,99.43,0
7.758,-4.92,99.43,0
7.778,-5.9,99.55,0
7.798,-6.63,99.55,0
7.818,-7.12,99.55,0
7.838,-7.98,99.55,0
7.858,-8.71,99.55,0
7.878,-9.2,99.55,0
7.898,-9.45,99.43,0
7.918,-9.69,99.43,0
7.938,-9.69,99.55,0
7.958,-9.81,99.55,0
7.978,-9.93,99.43,0
7.998,-9.93,99.43,0
8.018,-9.93,99.43,0
8.038,-9.93,99.43,0
8.058,-9.93,99.43,0
8.078,-10.06,99.43,0
8.099,-10.06,99.55,0
8.119,-10.06,99.43,0
8.139,-10.06,99.43,0
8.159,-10.06,99.43,0
8.179,-10.06,99.55,0
8.199,-10.06,99.55,0
8.219,-10.06,99.43,0
8.239,-10.18,99.55,0
8.259,-10.06,99.55,0
8.279,-10.18,99.43,0
8.299,-10.18,99.43,0
8.319,-10.18,99.43,0
8.339,-10.18,99.43,0
8.359,-10.18,99.43,0
8.379,-10.06,99.43,0
8.399,-10.18,99.55,0
8.419,-10.18,99.55,0
8.439,-10.18,99.55,0
8.459,-10.18,99.55,0
8.479,-10.18,99.43,0
8.499,-10.18,99.43,1
8.5,-10.18,99.43,1
8.52,-10.18,99.43,1
8.54,-10.18,99.43,1
8.56,-10.18,99.55,1
8.58,-10.18,99.55,1
8.6,-10.18,99.55,1
8.62,-10.18,99.55,1
8.64,-10.3,99.43,1
8.66,-10.3,99.43,1
8.68,-10.3,99.43,1
8.7,-10.3,99.43,1
8.72,-10.3,99.43,1
8.74,-10.3,99.43,1
8.76,-10.3,99.43,1
8.78,-10.18,99.43,1
8.8,-9.57,99.43,1
8.82,-8.96,99.55,1
8.84,-8.47,99.55,1
8.86,-7.98,99.43,1
8.88,-7.25,99.43,1
8.9,-6.51,99.55,1
8.92,-6.02,99.43,1
8.94,-5.78,99.55,1
8.96,-5.41,99.55,1
8.98,-5.05,99.43,1
9.0,-4.68,99.43,1
9.02,-4.56,99.43,1
9.04,-4.44,99.43,1
9.06,-4.44,99.43,1
9.08,-4.44,99.43,1
9.1,-4.56,99.43,1
9.12,-4.56,99.43,1
9.14,-4.31,99.43,0
9.16,-3.95,99.43,0
9.18,-3.95,99.43,0
9.2,-3.95,99.55,0
9.22,-3.95,99.55,0
9.24,-3.95,99.55,0
9.26,-3.95,99.55,0
9.28,-4.07,99.55,0
9.3,-3.95,99.55,0
9.302,-3.82,99.55,0
9.322,-3.82,99.55,0
9.342,-3.82,99.55,0
9.362,-3.82,99.43,0
9.382,-3.95,99.43,0
9.402,-3.95,99.43,0
9.422,-4.07,99.43,0
9.442,-4.07,99.55,0
9.462,-3.7,99.43,0
9.482,-3.7,99.43,0
9.502,-3.7,99.43,0
9.522,-3.7,99.43,0
9.542,-3.7,99.43,0
9.562,-3.82,99.43,0
9.582,-3.95,99.43,0
9.602,-3.95,99.43,0
9.622,-3.7,99.43,0
9.642,-3.58,99.55,0
9.662,-3.58,99.55,0
9.682,-3.58,99.55,0
9.702,-3.58,99.55,0
9.722,-3.58,99.55,0
9.742,-3.58,99.43,0
9.762,-3.58,99.43,0
9.782,-3.58,99.43,0
9.802,-3.58,99.55,0
9.822,-3.58,99.55,0
9.842,-3.7,99.55,0
9.862,-4.92,99.55,0
9.882,-6.02,99.55,0
9.902,-6.63,99.55,0
9.922,-7.25,99.55,0
9.942,-8.22,99.43,0
9.962,-8.83,99.43,0
9.982,-9.2,99.43,0
10.002,-9.57,99.43,0
10.022,-9.69,99.43,0
10.042,-9.81,99.43,0
10.062,-9.81,99.55,0
10.082,-9.81,99.55,0
10.102,-9.93,99.55,0
10.103,-9.93,99.43,0
10.123,-9.93,99.55,0
10.143,-10.06,99.43,0
10.163,-10.06,99.55,0
10.183,-10.06,99.43,0
10.203,-10.06,99.43,0
10.223,-10.06,99.55,0
10.243,-10.06,99.55,0
10.263,-10.06,99.43,0
10.283,-10.06,99.43,0
10.303,-10.18,99.43,0
10.323,-10.18,99.43,0
10.343,-10.18,99.55,0
10.363,-10.18,99.43,0
10.383,-10.18,99.55,0
10.403,-10.18,99.43,0
10.423,-10.18,99.43,0
10.443,-10.3,99.43,0
10.463,-10.18,99.43,0
10.483,-10.18,99.43,0
10.503,-10.18,99.55,0
10.503,-10.18,99.55,0
10.523,-10.18,99.43,0
10.543,-10.18,99.43,1
10.563,-10.18,99.43,1
10.583,-10.18,99.55,1
10.603,-10.18,99.55,1
10.623,-10.18,99.55,1
10.643,-10.18,99.55,1
10.663,-10.18,99.43,1
10.683,-10.18,99.43,1
10.703,-10.3,99.43,1
10.723,-10.3,99.43,1
10.743,-10.3,99.43,1
10.763,-10.3,99.55,1
10.783,-10.3,99.43,1
10.803,-10.3,99.43,1
10.823,-9.93,99.43,1
10.843,-9.32,99.43,1
10.863,-8.71,99.43,1
10.883,-8.22,99.43,1
10.903,-7.61,99.43,1
10.904,-6.63,99.55,1
10.924,-6.02,99.55,1
10.944,-5.78,99.55,1
10.964,-5.54,99.43,1
10.984,-5.17,99.43,1
11.004,-4.8,99.43,1
11.024,-4.56,99.43,1
11.044,-4.44,99.43,1
11.064,-4.31,99.43,1
11.084,-4.31,99.55,1
11.104,-4.31,99.55,1
11.124,-4.44,99.55,1
11.144,-4.44,99.43,0
11.164,-3.95,99.55,0
11.184,-3.82,99.55,0
11.204,-3.82,99.43,0
11.224,-3.82,99.43,0
11.244,-3.95,99.43,0
11.264,-3.95,99.43,0
11.284,-4.07,99.55,0
11.304,-3.95,99.43,0
11.305,-3.82,99.55,0
11.325,-3.82,99.55,0
11.345,-3.82,99.43,0
11.365,-3.95,99.55,0
11.385,-3.95,99.43,0
11.405,-4.07,99.43,0
11.425,-4.19,99.43,0
11.445,-3.95,99.43,0
11.465,-3.7,99.55,0
11.485,-3.7,99.43,0
11.505,-3.7,99.43,0
11.525,-3.82,99.43,0
11.545,-3.82,99.55,0
11.565,-3.95,99.55,0
11.585,-3.95,99.55,0
11.605,-3.7,99.43,0
11.625,-3.58,99.43,0
11.645,-3.58,99.43,0
11.665,-3.58,99.43,0
11.685,-3.7,99.43,0
11.705,-3.58,99.43,0
11.725,-3.7,99.43,0
11.745,-3.7,99.55,0
11.765,-3.46,99.55,0
11.785,-3.46,99.43,0
11.805,-3.58,99.43,0
11.825,-4.19,99.43,0
11.845,-5.41,99.43,0
11.865,-6.27,99.43,0
11.885,-6.88,99.43,0
11.905,-7.49,99.43,0
11.925,-8.47,99.43,0
11.945,-8.83,99.55,0
11.965,-9.2,99.43,0
11.985,-9.57,99.43,0
12.005,-9.69,99.43,0
12.025,-9.81,99.55,0
12.045,-9.93,99.43,0
12.065,-9.93,99.43,0
12.085,-10.06,99.43,0
12.106,-9.93,99.43,0
12.126,-10.06,99.55,0
12.146,-10.06,99.55,0
12.166,-10.18,99.55,0
12.186,-10.18,99.43,0
12.206,-10.18,99.43,0
12.226,-10.18,99.43,0
12.246,-10.06,99.43,0
12.266,-10.06,99.55,0
12.286,-10.18,99.55,0
12.306,-10.18,99.55,0
12.326,-10.18,99.43,0
12.346,-10.18,99.43,0
12.366,-10.18,99.43,0
12.386,-10.06,99.55,0
12.406,-10.18,99.43,0
12.426,-10.18,99.55,0
12.446,-10.18,99.55,0
12.466,-10.18,99.43,0
12.486,-10.18,99.43,0
12.506,-10.18,99.43,0
12.507,-10.18,99.55,0
12.527,-10.18,99.43,1
12.547,-10.18,99.55,1
12.567,-10.18,99.43,1
12.587,-10.18,99.43,1
12.607,-10.18,99.43,1
12.627,-10.18,99.43,1
12.647,-10.18,99.43,1
12.667,-10.18,99.43,1
12.687,-10.18,99.55,1
12.707,-10.18,99.43,1
12.727,-10.3,99.43,1
12.747,-10.3,99.43,1
12.767,-10.3,99.43,1
12.787,-10.3,99.43,1
12.807,-10.18,99.55,1
12.827,-9.57,99.55,1
12.847,-8.96,99.55,1
12.867,-8.47,99.43,1
12.887,-7.98,99.43,1
12.907,-7.12,99.43,1
12.907,-6.27,99.43,1
12.927,-5.9,99.43,1
12.947,-5.54,99.43,1
12.967,-5.29,99.43,1
12.987,-4.92,99.43,1
13.007,-4.68,99.43,1
13.027,-4.56,99.55,1
13.047,-4.44,99.43,1
13.067,-4.44,99.43,1
13.087,-4.44,99.43,1
13.107,-4.44,99.43,1
13.127,-4.44,99.43,1
13.147,-4.19,99.43,0
13.167,-3.95,99.43,0
13.187,-3.95,99.43,0
13.207,-3.95,99.55,0
13.227,-3.95,99.55,0
13.247,-3.95,99.43,0
13.267,-4.07,99.43,0
13.287,-4.07,99.43,0
13.307,-3.82,99.43,0
13.327,-3.7,99.43,0
13.347,-3.82,99.43,0
13.367,-3.7,99.43,0
13.387,-3.82,99.43,0
13.407,-3.82,99.55,0
13.427,-3.95,99.55,0
13.447,-3.82,99.43,0
13.467,-3.7,99.43,0
13.487,-3.7,99.55,0
13.507,-3.7,99.43,0
13.527,-3.7,99.43,0
13.547,-3.7,99.43,0
13.567,-3.82,99.55,0
13.587,-4.07,99.43,0
13.607,-3.95,99.43,0
13.627,-3.7,99.43,0
13.647,-3.58,99.55,0
13.667,-3.7,99.43,0
13.687,-3.7,99.43,0
13.708,-3.7,99.43,0
13.728,-3.7,99.43,0
13.748,-3.7,99.43,0
13.768,-3.58,99.55,0
13.788,-3.58,99.43,0
13.808,-3.58,99.43,0
13.828,-3.7,99.55,0
13.848,-4.92,99.55,0
13.868,-5.9,99.55,0
13.888,-6.63,99.43,0
13.908,-7.12,99.43,0
13.928,-8.1,99.43,0
13.948,-8.83,99.43,0
13.968,-9.08,99.43,0
13.988,-9.45,99.43,0
14.008,-9.69,99.43,0
14.028,-9.81,99.55,0
14.048,-9.81,99.55,0
14.068,-9.93,99.55,0
14.088,-9.93,99.43,0
14.108,-9.81,99.55,0
14.128,-9.81,99.43,0
14.148,-9.93,99.43,0
14.168,-9.93,99.43,0
14.188,-10.06,99.43,0
14.208,-10.06,99.43,0
14.228,-10.06,99.43,0
14.248,-10.06,99.55,0
14.268,-10.06,99.43,0
14.288,-10.06,99.43,0
14.308,-10.18,99.43,0
14.328,-10.18,99.43,0
14.348,-10.18,99.55,0
14.368,-10.18,99.55,0
14.388,-10.18,99.55,0
14.408,-10.18,99.43,0
14.428,-10.18,99.43,0
14.448,-10.18,99.43,0
14.468,-10.18,99.43,0
14.488,-10.18,99.43,0
14.508,-10.18,99.55,0
14.509,-10.3,99.43,0
14.529,-10.18,99.43,0
14.549,-10.18,99.43,1
14.569,-10.18,99.43,1
14.589,-10.18,99.43,1
14.609,-10.18,99.43,1
14.629,-10.18,99.55,1
14.649,-10.18,99.43,1
14.669,-10.18,99.43,1
14.689,-10.06,99.43,1
14.709,-10.18,99.43,1
14.729,-10.18,99.43,1
14.749,-10.3,99.43,1
14.769,-10.3,99.55,1
14.789,-10.18,99.43,1
14.809,-10.3,99.43,1
14.829,-10.06,99.43,1
14.849,-9.32,99.43,1
14.869,-8.71,99.43,1
14.889,-8.22,99.43,1
14.909,-7.73,99.43,1
14.91,-6.76,99.55,1
14.93,-6.15,99.55,1
14.95,-5.78,99.55,1
14.97,-5.41,99.43,1
14.99,-5.17,99.43,1
15.01,-4.8,99.43,1
15.03,-4.68,99.43,1
15.05,-4.56,99.43,1
15.07,-4.44,99.43,1
15.09,-4.44,99.43,1
15.11,-4.44,99.55,1
15.13,-4.56,99.55,1
15.15,-4.44,99.55,0
15.17,-3.95,99.43,0
15.19,-3.95,99.43,0
15.21,-3.95,99.43,0
15.23,-3.95,99.43,0
15.25,-3.95,99.43,0
15.27,-4.07,99.43,0
15.29,-4.19,99.43,0
15.31,-3.95,99.55,0
15.31,-3.82,99.55,0
15.33,-3.82,99.55,0
15.35,-3.82,99.55,0
15.37,-3.82,99.43,0
15.39,-3.95,99.43,0
15.41,-3.95,99.55,0
15.43,-4.07,99.43,0
15.45,-3.7,99.43,0
15.47,-3.58,99.43,0
15.49,-3.7,99.55,0
15.51,-3.58,99.43,0
15.53,-3.7,99.55,0
15.55,-3.7,99.55,0
15.57,-3.82,99.43,0
15.59,-3.95,99.55,0
15.61,-3.7,99.43,0
15.63,-3.58,99.43,0
15.65,-3.58,99.43,0
15.67,-3.58,99.43,0
15.69,-3.7,99.43,0
15.711,-3.7,99.43,0
15.731,-3.7,99.43,0
15.751,-3.7,99.55,0
15.771,-3.58,99.55,0
15.791,-3.58,99.43,0
15.811,-3.7,99.55,0
15.831,-4.07,99.43,0
15.851,-5.41,99.43,0
15.871,-6.27,99.43,0
15.891,-6.88,99.43,0
15.911,-7.49,99.43,0
15.931,-8.47,99.43,0
15.951,-9.08,99.55,0
15.971,-9.32,99.55,0
15.991,-9.69,99.55,0
16.011,-9.81,99.43,0
16.031,-9.81,99.43,0
16.051,-9.93,99.43,0
16.071,-9.93,99.43,0
16.091,-9.93,99.43,0
16.111,-9.93,99.43,0
16.131,-9.93,99.43,0
16.151,-10.06,99.43,0
16.171,-10.06,99.55,0
16.191,-10.06,99.43,0
16.211,-10.06,99.43,0
16.231,-10.06,99.43,0
16.251,-10.06,99.43,0
16.271,-10.06,99.43,0
16.291,-10.06,99.55,0
16.311,-10.06,99.43,0
16.331,-10.06,99.43,0
16.351,-10.06,99.43,0
16.371,-10.18,99.43,0
16.391,-10.06,99.43,0
16.411,-10.06,99.43,0
16.431,-10.06,99.43,0
16.451,-10.18,99.43,0
16.471,-10.18,99.55,0
16.491,-10.18,99.43,0
16.511,-10.18,99.43,0
16.531,-10.18,99.43,0
16.551,-10.18,99.43,1
16.571,-10.18,99.55,1
16.591,-10.18,99.55,1
16.611,-10.18,99.43,1
16.631,-10.18,99.43,1
16.651,-10.18,99.43,1
16.671,-10.18,99.43,1
16.691,-10.18,99.43,1
16.711,-10.18,99.55,1
16.731,-10.18,99.55,1
16.751,-10.3,99.43,1
16.771,-10.3,99.43,1
16.791,-10.3,99.43,1
16.811,-10.3,99.43,1
16.831,-10.3,99.43,1
16.851,-9.81,99.55,1
16.871,-9.2,99.55,1
16.891,-8.59,99.43,1
16.912,-8.1,99.55,1
16.932,-7.37,99.43,1
16.952,-6.39,99.43,1
16.972,-6.02,99.43,1
16.992,-5.66,99.43,1
17.012,-5.41,99.43,1
17.032,-5.05,99.55,1
17.052,-4.68,99.55,1
17.072,-4.56,99.55,1
17.092,-4.44,99.43,1
17.112,-4.31,99.55,1
17.132,-4.31,99.43,1
17.152,-4.44,99.55,1
17.172,-4.44,99.43,1
17.192,-4.19,99.43,0
17.212,-3.95,99.43,0
17.232,-3.95,99.43,0
17.252,-3.95,99.55,0
17.272,-3.95,99.55,0
17.292,-3.95,99.43,0
17.312,-4.07,99.43,0
17.332,-4.19,99.43,0
17.352,-3.95,99.43,0
17.372,-3.82,99.43,0
17.392,-3.82,99.55,0
17.412,-3.82,99.43,0
17.432,-3.95,99.43,0
17.452,-3.95,99.55,0
17.472,-4.07,99.55,0
17.492,-4.07,99.55,0
17.512,-3.82,99.55,0
17.532,-3.7,99.55,0
17.552,-3.7,99.43,0
17.572,-3.7,99.43,0
17.592,-3.82,99.43,0
17.612,-3.82,99.43,0
17.633,-3.95,99.43,0
17.652,-3.95,99.43,0
17.672,-3.7,99.55,0
17.692,-3.58,99.55,0
17.712,-3.58,99.55,0
17.713,-3.58,99.43,0
17.733,-3.58,99.43,0
17.753,-3.58,99.43,0
17.773,-3.58,99.43,0
17.793,-3.58,99.43,0
17.813,-3.46,99.43,0
17.833,-3.46,99.43,0
17.853,-3.58,99.43,0
17.873,-4.44,99.43,0
17.893,-5.66,99.55,0
17.913,-6.39,99.55,0
17.933,-6.88,99.43,0
17.953,-7.86,99.43,0
17.973,-8.71,99.43,0
17.993,-9.08,99.43,0
18.013,-9.45,99.43,0
18.033,-9.69,99.43,0
18.053,-9.81,99.43,0
18.073,-9.93,99.43,0
18.093,-9.93,99.43,0
18.113,-9.93,99.43,0
18.133,-9.93,99.43,0
18.153,-9.93,99.43,0
18.173,-10.06,99.43,0
18.193,-10.06,99.43,0
18.213,-10.06,99.43,0
18.233,-10.18,99.55,0
18.253,-10.06,99.43,0
18.273,-10.06,99.55,0
18.293,-10.06,99.43,0
18.313,-10.06,99.43,0
18.333,-10.18,99.43,0
18.353,-10.18,99.43,0
18.373,-10.18,99.43,0
18.393,-10.18,99.55,0
18.413,-10.06,99.43,0
18.433,-10.06,99.55,0
18.453,-10.06,99.43,0
18.473,-10.18,99.43,0
18.493,-10.18,99.55,0
18.514,-10.18,99.55,0
18.534,-10.18,99.55,0
18.554,-10.18,99.55,0
18.574,-10.18,99.43,0
18.594,-10.06,99.43,1
18.614,-10.18,99.43,1
18.634,-10.18,99.43,1
18.654,-10.18,99.55,1
18.674,-10.18,99.55,1
18.694,-10.18,99.43,1
18.714,-10.18,99.43,1
18.734,-10.18,99.55,1
18.754,-10.18,99.43,1
18.774,-10.3,99.43,1
18.794,-10.3,99.43,1
18.814,-10.3,99.55,1
18.834,-10.3,99.55,1
18.854,-10.3,99.43,1
18.874,-10.18,99.43,1
18.894,-9.45,99.55,1
18.914,-8.83,99.43,1
18.934,-8.35,99.43,1
18.954,-7.86,99.55,1
18.974,-6.88,99.43,1
18.994,-6.15,99.55,1
19.014,-5.78,99.43,1
19.034,-5.41,99.55,1
19.054,-5.17,99.43,1
19.074,-4.8,99.43,1
19.094,-4.68,99.43,1
19.114,-4.56,99.43,1
19.134,-4.44,99.43,1
19.154,-4.31,99.43,1
19.174,-4.31,99.43,1
19.194,-4.44,99.55,1
19.214,-4.31,99.43,0
19.234,-4.07,99.55,0
19.254,-3.95,99.43,0
19.274,-3.95,99.43,0
19.294,-3.95,99.43,0
19.314,-3.95,99.43,0
19.334,-4.07,99.43,0
19.354,-4.07,99.55,0
19.374,-3.95,99.55,0
19.394,-3.82,99.55,0
19.414,-3.82,99.55,0
19.434,-3.82,99.55,0
19.454,-3.82,99.43,0
19.474,-3.95,99.43,0
19.494,-3.95,99.43,0
19.514,-4.07,99.43,0
19.534,-3.95,99.43,0
19.554,-3.7,99.43,0
19.574,-3.7,99.43,0
19.594,-3.7,99.55,0
19.614,-3.82,99.55,0
19.634,-3.82,99.55,0
19.654,-3.95,99.55,0
19.674,-4.07,99.43,0
19.694,-3.82,99.43,0
19.714,-3.7,99.43,0
19.734,-3.7,99.43,0
19.754,-3.58,99.43,0
19.774,-3.7,99.43,0
19.794,-3.7,99.43,0
19.814,-3.7,99.55,0
19.834,-3.7,99.55,0
19.854,-3.58,99.55,0
19.874,-3.58,99.43,0
19.894,-3.58,99.43,0
19.914,-3.82,99.43,0
19.934,-5.17,99.43,0
19.954,-6.02,99.43,0
19.974,-6.63,99.55,0
19.994,-7.12,99.55,0
20.014,-8.22,99.55,0
20.034,-8.83,99.43,0
20.054,-9.2,99.43,0
20.074,-9.45,99.43,0
20.094,-9.69,99.43,0
20.114,-9.81,99.55,0
20.115,-9.81,99.55,0
20.135,-9.93,99.43,0
20.155,-9.93,99.43,0
20.175,-9.93,99.43,0
20.195,-9.93,99.43,0
20.215,-10.06,99.55,0
20.235,-10.06,99.55,0
20.255,-10.18,99.43,0
20.275,-10.18,99.43,0
20.295,-10.06,99.43,0
20.315,-10.18,99.43,0
20.335,-10.06,99.43,0
20.355,-10.18,99.43,0
20.375,-10.18,99.55,0
20.395,-10.18,99.43,0
20.415,-10.18,99.43,0
20.435,-10.18,99.43,0
20.455,-10.18,99.43,0
20.475,-10.06,99.43,0
20.495,-10.06,99.55,0
20.516,-10.18,99.43,0
20.536,-10.18,99.43,0
20.556,-10.18,99.43,0
20.576,-10.18,99.43,0
20.596,-10.18,99.43,0
20.616,-10.18,99.55,1
20.636,-10.18,99.43,1
20.656,-10.18,99.43,1
20.676,-10.18,99.43,1
20.696,-10.18,99.43,1
20.716,-10.18,99.43,1
20.736,-10.18,99.43,1
20.756,-10.18,99.55,1
20.776,-10.18,99.43,1
20.796,-10.18,99.55,1
20.816,-10.18,99.43,1
20.836,-10.3,99.43,1
20.856,-10.3,99.55,1
20.876,-10.3,99.43,1
20.896,-10.3,99.43,1
20.916,-9.81,99.55,1
20.936,-9.2,99.55,1
20.956,-8.71,99.43,1
20.976,-8.22,99.43,1
20.996,-7.49,99.43,1
21.016,-6.63,99.43,1
21.036,-6.02,99.43,1
21.056,-5.78,99.43,1
21.076,-5.41,99.43,1
21.096,-5.05,99.43,1
21.116,-4.8,99.43,1
21.136,-4.56,99.43,1
21.156,-4.56,99.43,1
21.176,-4.44,99.43,1
21.196,-4.44,99.43,1
21.216,-4.56,99.43,1
21.236,-4.56,99.55,1
21.256,-4.19,99.43,0
21.276,-3.95,99.43,0
21.296,-3.95,99.43,0
21.316,-3.95,99.43,0
21.317,-3.95,99.55,0
21.337,-3.95,99.43,0
21.357,-4.07,99.43,0
21.377,-4.19,99.55,0
21.397,-3.82,99.43,0
21.417,-3.82,99.43,0
21.437,-3.82,99.43,0
21.457,-3.82,99.43,0
21.477,-3.82,99.43,0
21.497,-3.95,99.43,0
21.517,-3.95,99.55,0
21.537,-3.95,99.43,0
21.557,-3.7,99.55,0
21.577,-3.7,99.55,0
21.597,-3.7,99.43,0
21.617,-3.7,99.43,0
21.637,-3.82,99.43,0
21.657,-3.95,99.43,0
21.677,-4.07,99.43,0
21.697,-3.95,99.43,0
21.717,-3.7,99.55,0
21.718,-3.7,99.55,0
21.738,-3.7,99.43,0
21.758,-3.7,99.43,0
21.778,-3.7,99.43,0
21.798,-3.7,99.43,0
21.818,-3.82,99.43,0
21.838,-3.58,99.43,0
21.858,-3.58,99.43,0
21.878,-3.58,99.43,0
21.898,-3.7,99.43,0
21.918,-4.44,99.55,0
21.938,-5.66,99.43,0
21.958,-6.39,99.55,0
21.978,-6.88,99.43,0
21.998,-7.61,99.43,0
22.018,-8.59,99.43,0
22.038,-9.08,99.43,0
22.058,-9.32,99.43,0
22.078,-9.69,99.43,0
22.098,-9.81,99.43,0
22.118,-9.81,99.43,0
22.138,-9.93,99.55,0
22.158,-9.93,99.55,0
22.178,-9.93,99.43,0
22.198,-9.93,99.43,0
22.218,-9.81,99.43,0
22.238,-9.93,99.55,0
22.258,-10.06,99.43,0
22.278,-10.06,99.43,0
22.298,-10.06,99.43,0
22.318,-10.06,99.55,0
22.338,-10.06,99.43,0
22.358,-10.06,99.43,0
22.378,-10.06,99.43,0
22.398,-10.18,99.55,0
22.418,-10.18,99.43,0
22.438,-10.18,99.43,0
22.458,-10.18,99.55,0
22.478,-10.06,99.43,0
22.498,-10.06,99.43,0
22.518,-10.18,99.43,0
22.519,-10.18,99.43,0
22.539,-10.18,99.43,0
22.559,-10.18,99.43,0
22.579,-10.18,99.55,0
22.599,-10.18,99.55,0
22.619,-10.18,99.43,1
22.639,-10.18,99.43,1
22.659,-10.18,99.43,1
22.679,-10.18,99.43,1
22.699,-10.18,99.55,1
22.719,-10.18,99.55,1
22.739,-10.18,99.43,1
22.759,-10.18,99.43,1
22.779,-10.18,99.43,1
22.799,-10.18,99.43,1
22.819,-10.3,99.43,1
22.839,-10.3,99.43,1
22.859,-10.3,99.43,1
22.879,-10.3,99.43,1
22.899,-10.18,99.43,1
22.919,-9.57,99.43,1
22.939,-8.96,99.43,1
22.959,-8.47,99.43,1
22.979,-7.98,99.55,1
22.999,-7.12,99.55,1
23.019,-6.27,99.55,1
23.039,-5.9,99.55,1
23.059,-5.54,99.55,1
23.079,-5.29,99.55,1
23.099,-4.92,99.55,1
23.119,-4.68,99.43,1
23.139,-4.56,99.43,1
23.159,-4.44,99.43,1
23.179,-4.44,99.55,1
23.199,-4.44,99.43,1
23.219,-4.56,99.43,1
23.239,-4.56,99.55,1
23.259,-4.07,99.55,0
23.279,-3.95,99.43,0
23.299,-3.95,99.43,0
23.319,-3.95,99.43,0
23.32,-4.07,99.43,0
23.34,-4.07,99.43,0
23.36,-4.19,99.43,0
23.38,-4.07,99.43,0
23.4,-3.95,99.43,0
23.42,-3.82,99.55,0
23.44,-3.95,99.55,0
23.46,-3.82,99.43,0
23.48,-3.95,99.43,0
23.5,-4.07,99.43,0
23.52,-4.07,99.43,0
23.54,-3.82,99.43,0
23.56,-3.7,99.43,0
23.58,-3.7,99.43,0
23.6,-3.7,99.43,0
23.62,-3.7,99.43,0
23.64,-3.82,99.55,0
23.66,-3.82,99.43,0
23.68,-3.95,99.43,0
23.7,-3.82,99.43,0
23.72,-3.58,99.43,0
23.74,-3.7,99.43,0
23.76,-3.58,99.43,0
23.78,-3.58,99.43,0
23.8,-3.7,99.43,0
23.82,-3.7,99.43,0
23.84,-3.7,99.43,0
23.86,-3.58,99.55,0
23.88,-3.58,99.55,0
23.9,-3.7,99.55,0
23.92,-3.82,99.43,0
23.94,-4.92,99.43,0
23.96,-6.02,99.43,0
23.98,-6.63,99.43,0
24.0,-7.25,99.43,0
24.02,-8.1,99.43,0
24.04,-8.83,99.43,0
24.06,-9.2,99.55,0
24.08,-9.45,99.43,0
24.1,-9.69,99.55,0
24.12,-9.81,99.43,0
24.14,-9.93,99.43,0
24.16,-9.93,99.43,0
24.18,-9.93,99.43,0
24.2,-9.93,99.43,0
24.22,-9.93,99.43,0
24.24,-9.93,99.43,0
24.26,-10.06,99.55,0
24.28,-10.06,99.43,0
24.3,-10.06,99.43,0
24.32,-10.06,99.43,0
24.34,-10.06,99.43,0
24.36,-10.06,99.43,0
24.38,-10.06,99.43,0
24.4,-10.06,99.43,0
24.42,-10.06,99.55,0
24.44,-10.18,99.55,0
24.46,-10.06,99.43,0
24.48,-10.06,99.43,0
24.5,-9.93,99.43,0
24.521,-10.06,99.43,0
24.541,-10.06,99.43,0
24.561,-10.18,99.55,0
24.581,-10.18,99.43,0
24.601,-10.18,99.55,0
24.621,-10.18,99.43,0
24.641,-10.18,99.43,0
24.661,-10.18,99.43,1
24.681,-10.18,99.43,1
24.701,-10.18,99.55,1
24.721,-10.18,99.43,1
24.741,-10.18,99.43,1
24.761,-10.18,99.43,1
24.781,-10.18,99.43,1
24.801,-10.18,99.43,1
24.821,-10.18,99.43,1
24.841,-10.18,99.55,1
24.861,-10.3,99.43,1
24.881,-10.3,99.43,1
24.901,-10.3,99.43,1
24.921,-10.3,99.43,1
24.941,-10.06,99.43,1
24.961,-9.45,99.55,1
24.981,-8.83,99.55,1
25.001,-8.35,99.43,1
25.021,-7.73,99.43,1
25.041,-6.76,99.43,1
25.061,-6.27,99.43,1
25.081,-5.78,99.43,1
25.101,-5.54,99.43,1
25.121,-5.17,99.43,1
25.141,-4.8,99.43,1
25.161,-4.56,99.55,1
25.181,-4.44,99.55,1
25.201,-4.44,99.55,1
25.221,-4.44,99.43,1
25.241,-4.44,99.43,1
25.261,-4.56,99.43,1
25.281,-4.31,99.43,0
25.301,-4.07,99.43,0
25.321,-3.95,99.43,0
25.322,-3.95,99.43,0
25.342,-3.95,99.55,0
25.362,-4.07,99.55,0
25.382,-4.07,99.55,0
25.402,-4.19,99.55,0
25.422,-4.07,99.43,0
25.442,-3.95,99.43,0
25.462,-3.82,99.43,0
25.482,-3.95,99.43,0
25.502,-3.95,99.43,0
25.522,-3.95,99.43,0
25.542,-4.07,99.55,0
25.562,-4.07,99.43,0
25.582,-3.82,99.43,0
25.602,-3.7,99.55,0
25.622,-3.7,99.43,0
25.642,-3.7,99.43,0
25.662,-3.7,99.43,0
25.682,-3.95,99.43,0
25.702,-3.95,99.43,0
25.722,-3.95,99.43,0
25.722,-3.82,99.43,0
25.742,-3.58,99.43,0
25.762,-3.58,99.55,0
25.782,-3.58,99.55,0
25.802,-3.58,99.55,0
25.822,-3.7,99.43,0
25.842,-3.58,99.43,0
25.862,-3.58,99.55,0
25.882,-3.46,99.43,0
25.902,-3.46,99.43,0
25.922,-3.58,99.43,0
25.942,-3.95,99.43,0
25.962,-5.29,99.43,0
25.982,-6.15,99.55,0
26.002,-6.76,99.55,0
26.022,-7.37,99.43,0
26.042,-8.35,99.43,0
26.062,-9.08,99.43,0
26.082,-9.32,99.43,0
26.102,-9.57,99.43,0
26.122,-9.69,99.55,0
26.123,-9.81,99.43,0
26.143,-9.93,99.43,0
26.163,-10.06,99.43,0
26.183,-9.93,99.55,0
26.203,-9.93,99.55,0
26.223,-9.93,99.43,0
26.243,-10.06,99.43,0
26.263,-10.06,99.43,0
26.283,-10.18,99.43,0
26.303,-10.18,99.43,0
26.323,-10.18,99.55,0
26.343,-10.06,99.43,0
26.363,-10.06,99.43,0
26.383,-10.06,99.43,0
26.403,-10.18,99.43,0
26.423,-10.06,99.43,0
26.443,-10.06,99.43,0
26.463,-10.18,99.55,0
26.483,-10.06,99.43,0
26.503,-10.06,99.43,0
26.523,-10.06,99.43,0
26.524,-10.06,99.43,0
26.544,-10.18,99.43,0
26.564,-10.18,99.43,0
26.584,-10.18,99.55,0
26.604,-10.18,99.43,0
26.624,-10.18,99.43,1
26.644,-10.06,99.43,1
26.664,-10.18,99.43,1
26.684,-10.18,99.43,1
26.704,-10.18,99.55,1
26.724,-10.18,99.55,1
26.744,-10.3,99.43,1
26.764,-10.18,99.55,1
26.784,-10.18,99.43,1
26.804,-10.18,99.55,1
26.824,-10.3,99.43,1
26.844,-10.3,99.43,1
26.864,-10.3,99.43,1
26.884,-10.3,99.43,1
26.904,-10.18,99.43,1
26.924,-9.69,99.43,1
26.944,-9.2,99.43,1
26.964,-8.59,99.43,1
26.984,-8.1,99.43,1
27.004,-7.37,99.55,1
27.024,-6.51,99.55,1
27.044,-6.02,99.55,1
27.064,-5.78,99.55,1
27.084,-5.41,99.55,1
27.104,-5.05,99.43,1
27.124,-4.8,99.43,1
27.144,-4.56,99.43,1
27.164,-4.44,99.43,1
27.184,-4.31,99.55,1
27.204,-4.31,99.43,1
27.224,-4.56,99.55,1
27.244,-4.44,99.55,1
27.264,-4.19,99.55,0
27.284,-3.95,99.55,0
27.304,-3.82,99.43,0
27.324,-3.82,99.43,0
27.344,-3.82,99.43,0
27.364,-4.07,99.43,0
27.384,-4.07,99.43,0
27.404,-4.07,99.43,0
27.424,-3.95,99.55,0
27.444,-3.82,99.43,0
27.464,-3.82,99.43,0
27.484,-3.82,99.43,0
27.504,-3.82,99.43,0
27.524,-3.95,99.43,0
27.544,-4.07,99.43,0
27.564,-3.95,99.43,0
27.584,-3.82,99.43,0
27.604,-3.7,99.43,0
27.624,-3.7,99.55,0
27.644,-3.7,99.43,0
27.664,-3.82,99.55,0
27.684,-3.95,99.55,0
27.704,-3.95,99.43,0
27.724,-3.95,99.43,0
27.725,-3.82,99.55,0
27.745,-3.7,99.43,0
27.765,-3.58,99.43,0
27.785,-3.58,99.43,0
27.805,-3.7,99.43,0
27.825,-3.7,99.55,0
27.845,-3.7,99.43,0
27.865,-3.58,99.55,0
27.885,-3.46,99.43,0
27.905,-3.58,99.43,0
27.925,-3.58,99.43,0
27.945,-4.56,99.43,0
27.965,-5.66,99.43,0
27.985,-6.39,99.55,0
28.005,-6.88,99.55,0
28.025,-7.73,99.43,0
28.045,-8.59,99.43,0
28.065,-9.08,99.43,0
28.085,-9.32,99.55,0
28.105,-9.57,99.43,0
28.125,-9.81,99.43,0
28.145,-9.81,99.43,0
28.165,-9.93,99.43,0
28.185,-9.93,99.43,0
28.205,-9.93,99.55,0
28.225,-9.93,99.43,0
28.245,-10.06,99.43,0
28.265,-10.06,99.43,0
28.285,-10.18,99.43,0
28.305,-10.18,99.43,0
28.325,-10.18,99.43,0
28.345,-10.06,99.43,0
28.365,-10.18,99.43,0
28.385,-10.06,99.55,0
28.405,-10.18,99.43,0
28.425,-10.18,99.43,0
28.445,-10.18,99.43,0
28.465,-10.18,99.43,0
28.485,-10.06,99.43,0
28.505,-10.06,99.43,0
28.525,-10.06,99.43,0
28.526,-10.18,99.55,0
28.546,-10.18,99.43,0
28.566,-10.18,99.43,0
28.586,-10.18,99.43,0
28.606,-10.18,99.55,0
28.626,-10.18,99.43,0
28.646,-10.18,99.55,1
28.666,-10.18,99.43,1
28.686,-10.18,99.43,1
28.706,-10.18,99.43,1
28.726,-10.18,99.43,1
28.746,-10.18,99.43,1
28.766,-10.18,99.43,1
28.786,-10.18,99.55,1
28.806,-10.18,99.43,1
28.826,-10.18,99.55,1
28.846,-10.18,99.43,1
28.866,-10.3,99.43,1
28.886,-10.3,99.43,1
28.906,-10.3,99.43,1
28.926,-10.06,99.43,1
28.927,-9.45,99.43,1
28.947,-8.83,99.55,1
28.967,-8.35,99.43,1
28.987,-7.86,99.43,1
29.007,-7.0,99.43,1
29.027,-6.27,99.43,1
29.047,-5.9,99.43,1
29.067,-5.54,99.55,1
29.087,-5.05,99.55,1
29.107,-4.92,99.55,1
29.127,-4.68,99.43,1
29.147,-4.44,99.55,1
29.167,-4.44,99.43,1
29.187,-4.44,99.43,1
29.207,-4.56,99.43,1
29.227,-4.56,99.43,1
29.247,-4.31,99.43,0
29.267,-4.07,99.43,0
29.287,-3.95,99.43,0
29.307,-3.82,99.43,0
29.327,-3.95,99.43,0
29.347,-3.95,99.55,0
29.367,-4.07,99.43,0
29.387,-4.07,99.43,0
29.407,-3.95,99.43,0
29.427,-3.95,99.43,0
29.447,-3.82,99.43,0
29.467,-3.82,99.43,0
29.487,-3.82,99.43,0
29.507,-3.82,99.43,0
29.527,-3.95,99.43,0
29.547,-3.95,99.55,0
29.567,-3.82,99.43,0
29.587,-3.82,99.43,0
29.607,-3.7,99.43,0
29.627,-3.7,99.43,0
29.647,-3.7,99.43,0
29.667,-3.82,99.43,0
29.687,-4.07,99.43,0
29.707,-3.95,99.43,0
29.727,-3.95,99.43,0
29.747,-3.82,99.55,0
29.767,-3.7,99.55,0
29.787,-3.7,99.55,0
29.807,-3.7,99.43,0
29.827,-3.7,99.43,0
29.847,-3.7,99.43,0
29.867,-3.7,99.43,0
29.887,-3.7,99.55,0
29.907,-3.58,99.43,0
29.927,-3.7,99.43,0
29.947,-3.95,99.55,0
29.967,-5.17,99.43,0
29.987,-6.15,99.43,0
30.007,-6.76,99.43,0
30.027,-7.25,99.43,0
30.047,-8.1,99.43,0
30.067,-8.96,99.43,0
30.087,-9.32,99.43,0
30.107,-9.45,99.43,0
30.128,-9.69,99.43,0
30.148,-9.81,99.43,0
30.168,-9.81,99.55,0
30.188,-9.93,99.55,0
30.208,-9.93,99.43,0
30.229,-9.93,99.43,0
30.248,-9.81,99.43,0
30.268,-9.93,99.43,0
30.288,-10.06,99.43,0
30.308,-10.06,99.43,0
30.328,-10.06,99.43,0
30.348,-10.06,99.43,0
30.368,-10.06,99.43,0
30.388,-10.18,99.55,0
30.408,-10.18,99.43,0
30.428,-10.18,99.43,0
30.448,-10.18,99.43,0
30.468,-10.18,99.55,0
30.488,-10.06,99.55,0
30.508,-10.18,99.55,0
30.528,-10.18,99.43,0
30.529,-10.18,99.43,0
30.549,-10.18,99.43,0
30.569,-10.18,99.43,0
30.589,-10.18,99.55,0
30.609,-10.18,99.43,0
30.629,-10.18,99.43,0
30.649,-10.18,99.43,0
30.669,-10.18,99.43,1
30.689,-10.18,99.43,1
30.709,-10.18,99.43,1
30.729,-10.18,99.55,1
30.749,-10.18,99.43,1
30.769,-10.18,99.55,1
30.789,-10.18,99.43,1
30.809,-10.18,99.43,1
30.829,-10.18,99.43,1
30.849,-10.18,99.43,1
30.869,-10.3,99.55,1
30.889,-10.3,99.43,1
30.909,-10.3,99.43,1
30.929,-10.18,99.43,1
30.929,-9.81,99.43,1
30.949,-9.2,99.43,1
30.969,-8.71,99.43,1
30.989,-8.22,99.43,1
31.009,-7.61,99.55,1
31.029,-6.63,99.55,1
31.049,-6.15,99.55,1
31.069,-5.78,99.43,1
31.089,-5.41,99.43,1
31.109,-5.05,99.55,1
31.129,-4.92,99.43,1
31.149,-4.68,99.43,1
31.169,-4.44,99.43,1
31.189,-4.44,99.43,1
31.209,-4.44,99.43,1
31.229,-4.56,99.55,1
31.249,-4.44,99.55,1
31.269,-4.19,99.55,0
31.289,-4.07,99.55,0
31.309,-3.95,99.43,0
31.329,-3.95,99.43,0
31.33,-3.95,99.43,0
31.35,-3.95,99.55,0
31.37,-4.19,99.43,0
31.39,-4.07,99.55,0
31.41,-3.95,99.55,0
31.43,-3.95,99.55,0
31.45,-3.82,99.55,0
31.47,-3.82,99.55,0
31.49,-3.82,99.43,0
31.51,-3.95,99.43,0
31.53,-4.07,99.43,0
31.55,-3.82,99.43,0
31.57,-3.82,99.43,0
31.59,-3.82,99.43,0
31.61,-3.7,99.55,0
31.63,-3.58,99.43,0
31.65,-3.7,99.43,0
31.67,-3.82,99.55,0
31.69,-3.82,99.43,0
31.71,-3.82,99.43,0
31.73,-3.82,99.43,0
31.75,-3.7,99.43,0
31.77,-3.58,99.43,0
31.79,-3.58,99.43,0
31.81,-3.58,99.43,0
31.83,-3.7,99.43,0
31.85,-3.7,99.43,0
31.87,-3.7,99.55,0
31.89,-3.58,99.43,0
31.91,-3.58,99.43,0
31.93,-3.7,99.43,0
31.95,-4.44,99.43,0
31.97,-5.66,99.43,0
31.99,-6.51,99.43,0
32.01,-6.88,99.43,0
32.03,-7.61,99.43,0
32.05,-8.59,99.43,0
32.07,-9.2,99.55,0
32.09,-9.45,99.55,0
32.11,-9.57,99.55,0
32.13,-9.81,99.43,0
32.132,-9.81,99.43,0
32.152,-9.93,99.43,0
32.172,-9.93,99.43,0
32.192,-9.93,99.43,0
32.212,-9.93,99.43,0
32.232,-9.93,99.55,0
32.252,-10.06,99.43,0
32.272,-10.06,99.55,0
32.292,-10.06,99.43,0
32.312,-10.06,99.43,0
32.332,-10.06,99.43,0
32.352,-10.06,99.43,0
32.372,-10.06,99.43,0
32.392,-10.06,99.55,0
32.412,-10.06,99.43,0
32.432,-10.06,99.43,0
32.452,-10.06,99.43,0
32.472,-10.06,99.43,0
32.492,-10.06,99.43,0
32.512,-10.18,99.43,0
32.532,-10.18,99.55,0
32.552,-10.18,99.55,0
32.572,-10.18,99.43,0
32.595,-10.18,99.43,0
32.615,-10.18,99.43,0
32.64,-10.18,99.43,0
32.66,,,
32.672,-10.18,99.55,1
32.692,-10.18,99.55,1
32.712,-10.18,99.43,1
32.732,-10.18,99.43,1
32.754,-10.18,99.55,1
32.775,,,
32.792,-10.18,99.43,1
32.812,-10.18,99.43,1
32.832,-10.18,99.55,1
32.852,-10.18,99.55,1
32.872,-10.18,99.43,1
32.892,,,
32.912,-10.18,99.43,1
32.932,-10.3,99.43,1
32.935,,,
32.955,-10.3,99.43,1
32.975,-10.3,99.43,1
32.995,-10.18,99.55,1
33.015,-9.57,99.43,1
33.035,-8.96,99.43,1
33.055,-8.47,99.43,1
33.075,-7.98,99.43,1
33.095,-7.25,99.43,1
33.115,-6.39,99.43,1
33.135,,,
33.155,-5.9,99.43,1
33.175,-5.54,99.43,1
33.195,-5.17,99.43,1
33.215,-4.92,99.55,1
33.235,-4.68,99.55,1
33.255,-4.56,99.43,1
33.275,-4.44,99.55,1
33.295,-4.44,99.43,1
33.315,-4.44,99.43,1
33.335,,,
33.335,,,
33.355,-4.56,99.43,1
33.375,-4.31,99.43,1
33.395,-4.19,99.43,0
33.415,-4.07,99.43,0
33.435,-3.95,99.43,0
33.455,-3.95,99.55,0
33.475,-3.95,99.43,0
33.495,-4.07,99.43,0
33.515,-4.07,99.43,0
33.535,-4.07,99.43,0
33.555,-4.07,99.43,0
33.575,-3.95,99.43,0
33.595,,,
33.615,-3.82,99.43,0
33.635,-3.82,99.55,0
33.655,-3.95,99.43,0
33.675,-4.07,99.55,0
33.695,-4.07,99.55,0
33.715,-3.82,99.43,0
33.736,-3.82,99.43,0
33.756,-3.82,99.43,0
33.776,-3.7,99.43,0
33.796,-3.7,99.43,0
33.816,-3.82,99.43,0
33.836,-3.95,99.43,0
33.861,-3.95,99.43,0
33.881,-3.82,99.43,0
33.902,-3.82,99.55,0
33.926,-3.7,99.55,0
33.947,-3.58,99.43,0
33.967,-3.58,99.43,0
33.992,-3.58,99.43,0
34.012,-3.7,99.43,0
34.033,-3.58,99.43,0
34.057,-3.58,99.43,0
34.078,-3.58,99.43,0
34.098,-3.58,99.43,0
34.123,-3.7,99.43,0
34.143,-4.8,99.55,0
34.164,,,
34.183,-5.9,99.43,0
34.203,-6.63,99.43,0
34.223,-7.12,99.43,0
34.243,-7.98,99.43,0
34.263,-8.83,99.43,0
34.283,-9.32,99.43,0
34.303,-9.57,99.43,0
34.323,-9.69,99.43,0
34.343,-9.81,99.55,0
34.363,,,
34.383,-9.93,99.55,0
34.403,-9.93,99.55,0
34.423,-9.93,99.55,0
34.443,-10.06,99.55,0
34.463,-9.93,99.43,0
34.483,-10.06,99.43,0
34.503,-10.06,99.43,0
34.523,-10.06,99.43,0
34.544,-10.06,99.55,0
34.565,-10.06,99.55,0
34.586,-10.06,99.55,0
34.61,-10.06,99.43,0
34.631,,,
34.644,-10.06,99.43,0
34.664,-10.06,99.43,0
34.684,-10.18,99.43,0
34.704,-10.06,99.43,0
34.725,-10.06,99.43,0
34.745,,,
34.764,-10.18,99.55,0
34.784,-10.06,99.43,0
34.804,-10.06,99.43,0
34.824,-10.06,99.43,0
34.844,-10.18,99.55,0
34.864,-10.18,99.43,0
34.884,-10.18,99.43,0
34.909,-10.18,99.43,0
34.93,-10.18,99.43,0
34.954,-10.18,99.43,1
34.975,,,
34.994,-10.18,99.43,1
35.014,-10.18,99.43,1
35.034,-10.18,99.55,1
35.054,-10.18,99.55,1
35.074,-10.18,99.55,1
35.094,-10.18,99.43,1
35.114,-10.18,99.43,1
35.138,-10.18,99.55,1
35.159,-10.3,99.43,1
35.183,-10.3,99.43,1
35.204,,,
35.214,-10.3,99.43,1
35.234,-10.3,99.43,1
35.254,-10.3,99.43,1
35.274,-9.93,99.43,1
35.294,,,
35.314,-9.32,99.55,1
35.334,-8.71,99.55,1
35.354,-8.35,99.43,1
35.36,,,
35.38,-7.73,99.55,1
35.4,-6.76,99.55,1
35.42,-6.27,99.43,1
35.44,-5.78,99.55,1
35.46,-5.41,99.43,1
35.48,-5.05,99.43,1
35.5,-4.8,99.43,1
35.52,-4.68,99.43,1
35.54,-4.44,99.55,1
35.56,-4.44,99.43,1
35.581,-4.31,99.55,1
35.602,-4.44,99.55,1
35.626,-4.44,99.43,1
35.646,-4.07,99.43,0
35.667,-4.07,99.43,0
35.692,-4.07,99.43,0
35.712,-3.82,99.43,0
35.733,-3.82,99.43,0
35.757,-3.95,99.43,0
35.778,-4.07,99.43,0
35.798,-4.07,99.43,0
35.823,-3.95,99.55,0
35.843,-4.07,99.55,0
35.864,,,
35.878,-3.95,99.43,0
35.898,-3.95,99.43,0
35.918,-3.95,99.43,0
35.938,-3.95,99.43,0
35.958,-4.07,99.43,0
35.978,-3.95,99.43,0
35.998,,,
36.018,-3.95,99.43,0
36.038,-3.82,99.43,0
36.058,-3.82,99.55,0
36.078,-3.82,99.55,0
36.098,-3.82,99.55,0
36.118,-3.95,99.43,0
36.138,-4.07,99.55,0
36.158,-3.95,99.43,0
36.178,-3.95,99.43,0
36.198,-3.82,99.43,0
36.218,-3.7,99.43,0
36.238,-3.58,99.43,0
36.258,,,
36.278,-3.7,99.43,0
36.298,-3.58,99.55,0
36.318,-3.7,99.55,0
36.338,-3.58,99.55,0
36.358,-3.58,99.43,0
36.378,-3.58,99.43,0
36.398,-3.58,99.43,0
36.418,-4.07,99.55,0
36.438,-5.29,99.43,0
36.458,-6.15,99.43,0
36.478,-6.76,99.43,0
36.498,-7.25,99.43,0
36.519,,,
36.538,-8.22,99.55,0
36.558,-8.96,99.43,0
36.579,-9.32,99.55,0
36.599,-9.45,99.43,0
36.619,-9.69,99.43,0
36.639,-9.81,99.55,0
36.659,-9.81,99.43,0
36.679,-9.93,99.43,0
36.699,-9.93,99.43,0
36.719,-10.06,99.55,0
36.74,-10.06,99.55,0
36.765,-10.06,99.43,0
36.785,,,
36.799,-10.18,99.43,0
36.819,-10.18,99.43,0
36.839,-10.06,99.43,0
36.859,-10.18,99.55,0
36.879,-10.18,99.43,0
36.899,,,
36.919,-10.18,99.55,0
36.939,-10.18,99.43,0
36.959,-10.18,99.43,0
36.979,-10.18,99.43,0
36.999,-10.18,99.43,0
37.019,-10.06,99.43,0
37.039,-10.18,99.55,0
37.06,,,
37.079,-10.18,99.55,0
37.099,-10.18,99.43,0
37.119,-10.18,99.43,0
37.139,-10.18,99.43,0
37.159,-10.18,99.43,0
37.179,-10.18,99.55,0
37.199,-10.18,99.55,0
37.223,-10.18,99.43,1
37.244,-10.18,99.43,1
37.268,-10.18,99.43,1
37.289,,,
37.299,-10.18,99.43,1
37.319,-10.18,99.43,1
37.339,-10.18,99.43,1
37.359,-10.18,99.55,1
37.383,-10.18,99.43,1
37.404,,,
37.423,-10.3,99.43,1
37.443,-10.3,99.43,1
37.463,-10.3,99.43,1
37.483,-10.3,99.55,1
37.503,-10.3,99.55,1
37.523,-10.3,99.43,1
37.543,-10.3,99.43,1
37.567,-9.69,99.55,1
37.588,-9.08,99.43,1
37.609,-8.59,99.43,1
37.633,-8.1,99.43,1
37.653,-7.37,99.43,1
37.674,-6.51,99.43,1
37.698,-6.02,99.55,1
37.719,-5.54,99.55,1
37.739,-5.17,99.55,1
37.764,-4.92,99.43,1
37.785,-4.8,99.43,1
37.805,-4.56,99.43,1
37.83,-4.44,99.43,1
37.85,-4.44,99.43,1
37.871,,,
37.885,-4.44,99.55,1
37.905,-4.44,99.43,1
37.925,-4.19,99.43,1
37.945,-4.19,99.55,0
37.965,-4.07,99.43,0
37.985,-3.95,99.55,0
38.005,,,
38.025,-3.82,99.43,0
38.045,-3.95,99.43,0
38.065,-3.95,99.43,0
38.085,-3.82,99.43,0
38.105,-3.82,99.43,0
38.125,-3.82,99.43,0
38.145,-3.82,99.43,0
38.165,-3.82,99.55,0
38.186,-3.7,99.55,0
38.206,-3.82,99.55,0
38.226,-3.82,99.55,0
38.246,-3.7,99.55,0
38.266,,,
38.286,-3.7,99.43,0
38.306,-3.7,99.43,0
38.326,-3.7,99.43,0
38.346,-3.7,99.43,0
38.366,-3.58,99.43,0
38.386,-3.7,99.55,0
38.406,-3.82,99.55,0
38.426,-3.7,99.55,0
38.446,-3.7,99.43,0
38.466,-3.82,99.55,0
38.486,-3.7,99.43,0
38.506,-3.58,99.43,0
38.526,,,
38.546,-3.58,99.43,0
38.566,-3.46,99.43,0
38.586,-3.58,99.43,0
38.606,-3.58,99.55,0
38.626,-3.58,99.55,0
38.646,-3.58,99.55,0
38.666,-3.58,99.55,0
38.686,-3.58,99.55,0
38.706,-4.68,99.43,0
38.726,-5.78,99.43,0
38.747,-6.51,99.43,0
38.767,-7.0,99.55,0
38.792,-7.86,99.43,0
38.812,-8.71,99.43,0
38.833,-9.2,99.55,0
38.858,-9.45,99.43,0
38.878,-9.57,99.43,0
38.899,-9.81,99.55,0
38.923,-9.81,99.43,0
38.944,-9.93,99.43,0
38.964,,,
38.966,,,
38.986,-9.93,99.43,0
38.989,-9.93,99.43,0
39.009,-9.93,99.43,0
39.03,,,
39.049,-10.06,99.43,0
39.069,-10.06,99.55,0
39.089,-10.06,99.55,0
39.109,-10.06,99.55,0
39.129,-10.06,99.43,0
39.149,-10.06,99.43,0
39.169,-10.18,99.43,0
39.189,,,
39.209,-10.06,99.43,0
39.229,-10.18,99.55,0
39.249,-10.18,99.43,0
39.269,-10.06,99.43,0
39.289,-10.06,99.43,0
39.309,-10.06,99.43,0
39.329,-10.06,99.43,0
39.353,-10.18,99.43,0
39.374,-10.18,99.43,0
39.399,-10.18,99.55,0
39.419,,,
39.439,-10.18,99.43,0
39.459,-10.18,99.43,0
39.479,-10.18,99.43,0
39.499,-10.18,99.43,0
39.519,-10.18,99.43,1
39.539,-10.18,99.55,1
39.559,-10.18,99.43,1
39.583,-10.18,99.43,1
39.603,-10.18,99.43,1
39.627,-10.18,99.43,1
39.648,,,
39.659,-10.18,99.43,1
39.679,-10.18,99.43,1
39.699,-10.18,99.43,1
39.719,-10.3,99.43,1
39.742,-10.3,99.43,1
39.763,,,
39.779,-10.3,99.43,1
39.799,-10.3,99.43,1
39.819,-10.3,99.43,1
39.839,-10.06,99.55,1
39.859,-9.45,99.55,1
39.879,-8.83,99.43,1
39.899,,,
39.919,-8.35,99.43,1
39.939,-7.73,99.43,1
39.959,-6.88,99.43,1
39.979,-6.27,99.43,1
39.999,-5.78,99.43,1
40.019,-5.41,99.43,1
40.039,-5.05,99.43,1
40.059,-4.92,99.43,1
40.079,-4.8,99.55,1
40.099,-4.68,99.43,1
40.119,-4.56,99.43,1
40.14,-4.44,99.43,1
40.16,,,
40.179,-4.56,99.55,1
40.199,-4.44,99.43,1
40.206,-4.31,99.43,0
40.226,,,
40.246,-4.19,99.43,0
40.266,-4.19,99.43,0
40.286,-4.07,99.43,0
40.306,-3.95,99.43,0
40.326,-4.07,99.55,0
40.346,-4.07,99.55,0
40.366,-4.07,99.43,0
40.386,-3.95,99.43,0
40.406,-4.07,99.43,0
40.426,-4.07,99.43,0
40.447,-3.95,99.43,0
40.467,-3.95,99.43,0
40.492,-4.07,99.43,0
40.512,-4.07,99.43,0
40.533,-3.95,99.55,0
40.557,-3.82,99.55,0
40.578,-3.95,99.55,0
40.598,-3.95,99.43,0
40.623,-3.82,99.43,0
40.643,-3.82,99.43,0
40.664,,,
40.683,-3.95,99.43,0
40.703,-3.95,99.43,0
40.723,-3.95,99.55,0
40.743,-3.95,99.43,0
40.763,-3.95,99.43,0
40.783,-3.82,99.55,0
40.803,-3.7,99.55,0
40.823,-3.7,99.43,0
40.843,-3.82,99.43,0
40.863,,,
40.883,-3.7,99.43,0
40.903,-3.7,99.43,0
40.923,-3.7,99.43,0
40.943,-3.7,99.43,0
40.963,-3.7,99.43,0
40.983,-4.07,99.43,0
41.003,-5.41,99.55,0
41.023,-6.27,99.55,0
41.043,-6.76,99.55,0
41.063,-7.37,99.43,0
41.083,-8.35,99.55,0
41.103,-9.08,99.43,0
41.123,,,
41.143,-9.32,99.43,0
41.163,-9.57,99.43,0
41.183,-9.69,99.43,0
41.203,-9.81,99.43,0
41.223,-9.81,99.55,0
41.243,-9.93,99.43,0
41.264,-9.93,99.43,0
41.283,-9.93,99.43,0
41.303,-9.93,99.43,0
41.323,-10.06,99.43,0
41.344,-10.06,99.43,0
41.368,-10.06,99.43,0
41.389,-10.06,99.43,0
41.413,-10.06,99.43,0
41.434,,,
41.454,-10.18,99.43,0
41.474,-10.18,99.43,0
41.494,-10.06,99.43,0
41.514,-10.18,99.43,0
41.534,-10.18,99.43,0
41.554,-10.06,99.43,0
41.574,-10.18,99.43,0
41.598,-10.18,99.43,0
41.618,-10.18,99.43,0
41.643,-10.06,99.43,0
41.663,,,
41.674,-10.06,99.43,0
41.694,-10.18,99.43,0
41.714,-10.18,99.43,0
41.734,-10.18,99.55,0
41.757,-10.18,99.55,0
41.778,,,
41.794,-10.18,99.55,1
41.814,-10.18,99.55,1
41.835,-10.18,99.43,1
41.855,-10.18,99.43,1
41.875,-10.18,99.43,1
41.895,,,
41.915,-10.18,99.43,1
41.935,-10.18,99.43,1
41.955,-10.18,99.43,1
41.975,-10.18,99.43,1
41.995,-10.18,99.43,1
42.015,-10.18,99.43,1
42.035,-10.3,99.43,1
42.055,,,
42.075,-10.3,99.43,1
42.095,-10.3,99.43,1
42.115,-10.18,99.43,1
42.135,-9.81,99.43,1
42.155,-9.2,99.43,1
42.175,-8.59,99.43,1
42.195,-8.1,99.55,1
42.215,-7.49,99.43,1
42.235,-6.51,99.55,1
42.253,,,
42.273,-6.15,99.55,1
42.293,-5.66,99.43,1
42.313,-5.17,99.43,1
42.333,-5.05,99.43,1
42.353,-4.8,99.43,1
42.373,-4.8,99.43,1
42.393,-4.56,99.43,1
42.413,-4.44,99.43,1
42.433,-4.56,99.43,1
42.453,-4.56,99.43,1
42.474,-4.31,99.55,1
42.495,-4.19,99.43,0
42.515,,,
42.533,-4.19,99.43,0
42.553,-4.19,99.43,0
42.573,-4.07,99.43,0
42.593,-4.07,99.43,0
42.613,-4.07,99.43,0
42.633,-4.07,99.43,0
42.654,-4.07,99.55,0
42.674,-4.07,99.55,0
42.694,-4.07,99.55,0
42.714,,,
42.734,-4.07,99.55,0
42.754,-3.95,99.43,0
42.774,-4.07,99.43,0
42.794,-4.07,99.43,0
42.814,-3.95,99.43,0
42.834,-3.95,99.43,0
42.854,-3.95,99.43,0
42.874,-3.95,99.43,0
42.894,-3.95,99.43,0
42.914,-3.82,99.43,0
42.934,-3.95,99.55,0
42.954,-3.95,99.43,0
42.978,-3.95,99.43,0
42.998,-3.95,99.43,0
43.019,-3.95,99.43,0
43.043,-3.95,99.43,0
