Time (s),Pressure 1 (kPa),Pressure 2 (kPa),Switch State
0.082,,,
0.102,-7.49,99.55,1
0.122,-7.49,99.43,1
0.142,-7.49,99.43,1
0.162,-7.49,99.43,1
0.182,-7.49,99.43,1
0.202,-7.49,99.43,1
0.222,-7.49,99.43,1
0.242,-7.49,99.43,1
0.262,-7.49,99.43,1
0.282,-7.49,99.55,1
0.302,-7.49,99.55,1
0.322,-7.49,99.43,1
0.342,-7.49,99.43,1
0.362,-7.49,99.43,1
0.382,-7.49,99.43,1
0.402,-7.49,99.43,1
0.422,-7.49,99.43,1
0.442,-7.49,99.43,1
0.462,-7.49,99.43,1
0.483,-7.49,99.43,1
0.503,-7.49,99.43,1
0.523,-7.49,99.43,1
0.543,-7.49,99.43,1
0.563,-7.49,99.43,1
0.583,-7.49,99.43,1
0.603,-7.49,99.43,1
0.623,-7.49,99.43,1
0.643,-7.49,99.43,1
0.663,-7.49,99.43,1
0.683,-7.49,99.43,1
0.703,-7.49,99.43,1
0.723,-7.49,99.43,1
0.743,-7.49,99.43,1
0.763,-7.49,99.43,1
0.783,-7.49,99.43,1
0.803,-7.49,99.43,1
0.823,-7.49,99.43,1
0.843,-7.49,99.43,1
0.863,-7.49,99.43,1
0.883,-7.49,99.43,1
0.903,-7.49,99.43,1
0.923,-7.49,99.43,1
0.943,-7.49,99.43,1
0.963,-7.49,99.43,1
0.983,-7.49,99.43,1
1.003,-7.49,99.43,1
1.023,-7.49,99.43,1
1.043,-7.49,99.43,1
1.063,-7.49,99.43,1
1.083,-7.49,99.43,1
1.103,-7.49,99.43,1
1.123,-7.49,99.43,1
1.143,-7.49,99.43,1
1.163,-7.49,99.43,1
1.183,-7.49,99.43,1
1.203,-7.49,99.43,1
1.223,-7.49,99.43,1
1.243,-7.61,99.43,1
1.263,-7.49,99.43,1
1.283,-7.49,99.43,1
1.284,-7.61,99.43,1
1.304,-7.49,99.43,1
1.324,-7.49,99.43,1
1.344,-7.49,99.43,1
1.364,-7.49,99.43,1
1.384,-7.49,99.43,1
1.404,-7.49,99.43,1
1.424,-7.49,99.43,1
1.444,-7.49,99.43,1
1.464,-7.49,99.43,1
1.484,-7.49,99.43,1
1.504,-7.49,99.43,1
1.524,-7.49,99.43,1
1.544,-7.49,99.43,1
1.564,-7.49,99.43,1
1.584,-7.49,99.43,1
1.604,-7.49,99.43,1
1.624,-7.49,99.43,1
1.644,-7.49,99.43,1
1.664,-7.49,99.43,1
1.685,-7.49,99.43,1
1.705,-7.49,99.43,1
1.725,-7.49,99.43,1
1.745,-7.61,99.43,1
1.765,-7.49,99.43,1
1.785,-7.49,99.43,1
1.805,-7.49,99.43,1
1.825,-7.49,99.43,1
1.845,-7.49,99.43,1
1.865,-7.49,99.43,1
1.885,-7.49,99.43,1
1.905,-7.49,99.43,1
1.925,-7.49,99.43,1
1.945,-7.49,99.43,1
1.965,-7.49,99.43,1
1.985,-7.49,99.43,1
2.005,-7.49,99.55,1
2.025,-7.49,99.43,1
2.045,-7.49,99.43,1
2.065,-7.49,99.43,1
2.085,-7.49,99.55,1
2.105,-7.49,99.43,1
2.125,-7.49,99.43,1
2.145,-7.49,99.43,1
2.165,-7.49,99.55,1
2.185,-7.49,99.43,1
2.205,-7.49,99.43,1
2.225,-7.49,99.43,1
2.245,-7.49,99.43,1
2.265,-7.49,99.43,1
2.285,-7.49,99.43,1
2.305,-7.49,99.43,1
2.325,-7.49,99.43,1
2.345,-7.49,99.43,1
2.365,-7.49,99.43,1
2.385,-7.49,99.43,1
2.405,-7.49,99.43,1
2.425,-7.49,99.43,1
2.445,-7.49,99.43,1
2.465,-7.49,99.43,1
2.486,-7.49,99.55,1
2.506,-7.49,99.55,1
2.526,-7.49,99.43,1
2.546,-7.49,99.43,1
2.566,-7.49,99.43,1
2.586,-7.49,99.43,1
2.606,-7.49,99.43,1
2.626,-7.49,99.43,1
2.646,-7.49,99.43,1
2.666,-7.49,99.43,1
2.686,-7.49,99.43,1
2.706,-7.49,99.43,1
2.726,-7.49,99.43,1
2.746,-7.49,99.43,1
2.766,-7.49,99.43,1
2.786,-7.49,99.43,1
2.806,-7.49,99.43,1
2.826,-7.49,99.43,1
2.846,-7.49,99.43,1
2.866,-7.49,99.43,1
2.886,-7.49,99.43,1
2.906,-7.49,99.43,1
2.926,-7.49,99.43,1
2.946,-7.49,99.43,1
2.966,-7.49,99.43,1
2.986,-7.49,99.55,1
3.006,-7.49,99.43,1
3.026,-7.49,99.43,1
3.046,-7.49,99.43,1
3.066,-7.49,99.43,1
3.086,-7.49,99.43,1
3.106,-7.49,99.43,1
3.126,-7.49,99.43,1
3.146,-7.49,99.43,1
3.166,-7.49,99.43,1
3.186,-7.49,99.43,1
3.206,-7.49,99.43,1
3.226,-7.49,99.43,1
3.246,-7.49,99.43,1
3.266,-7.49,99.43,1
3.287,-7.49,99.43,1
3.307,-7.49,99.43,1
3.327,-7.49,99.43,1
3.347,-7.49,99.43,1
3.367,-7.49,99.43,1
3.387,-7.49,99.43,1
3.407,-7.49,99.43,1
3.427,-7.49,99.43,1
3.447,-7.49,99.43,1
3.467,-7.49,99.43,1
3.487,-7.49,99.43,1
3.507,-7.49,99.43,1
3.527,-7.49,99.43,1
3.547,-7.49,99.43,1
3.567,-7.49,99.43,1
3.587,-7.49,99.43,1
3.607,-7.49,99.43,1
3.627,-7.49,99.43,1
3.647,-7.49,99.43,1
3.667,-7.49,99.43,1
3.687,-7.49,99.43,1
3.707,-7.49,99.43,1
3.727,-7.61,99.43,1
3.747,-7.49,99.43,1
3.767,-7.49,99.43,1
3.787,-7.49,99.43,1
3.807,-7.49,99.43,1
3.827,-7.49,99.43,1
3.847,-7.49,99.43,1
3.867,-7.49,99.43,1
3.887,-7.49,99.43,1
3.907,-7.49,99.43,1
3.927,-7.49,99.43,1
3.947,-7.49,99.43,1
3.967,-7.49,99.43,1
3.987,-7.49,99.43,1
4.007,-7.49,99.43,1
4.027,-7.49,99.43,1
4.047,-7.49,99.43,1
4.067,-7.49,99.43,1
4.088,-7.49,99.43,1
4.108,-7.49,99.43,1
4.128,-7.49,99.43,1
4.148,-7.49,99.43,1
4.168,-7.49,99.43,1
4.188,-7.49,99.43,1
4.208,-7.49,99.43,1
4.228,-7.49,99.43,1
4.248,-7.49,99.43,1
4.268,-7.49,99.43,1
4.288,-7.49,99.43,1
4.308,-7.49,99.43,1
4.328,-7.49,99.43,1
4.348,-7.49,99.43,1
4.368,-7.49,99.43,1
4.388,-7.49,99.43,1
4.408,-7.49,99.43,1
4.428,-7.49,99.43,1
4.448,-7.49,99.43,1
4.468,-7.49,99.43,1
4.488,-7.49,99.43,1
4.508,-7.49,99.43,1
4.528,-7.49,99.43,1
4.548,-7.49,99.43,1
4.568,-7.49,99.43,1
4.588,-7.49,99.55,1
4.608,-7.49,99.43,1
4.628,-6.63,99.43,1
4.648,-5.41,99.43,1
4.668,-5.05,99.55,1
4.688,-4.44,99.43,1
4.708,-3.82,99.43,1
4.728,-3.7,99.43,1
4.748,-3.7,99.43,1
4.768,-3.95,99.43,1
4.788,-3.58,99.43,1
4.808,-3.09,99.43,1
4.828,-3.09,99.43,1
4.848,-3.21,99.43,1
4.868,-3.7,99.43,0
4.888,-3.34,99.43,0
4.889,-3.21,99.43,0
4.909,-3.21,99.43,0
4.929,-3.34,99.43,0
4.949,-3.7,99.43,0
4.969,-3.21,99.43,0
4.989,-3.09,99.43,0
5.009,-3.21,99.43,0
5.029,-3.34,99.43,0
5.049,-3.7,99.43,0
5.069,-3.34,99.43,0
5.089,-3.21,99.43,0
5.109,-3.21,99.43,0
5.129,-3.34,99.43,0
5.149,-3.46,99.43,0
5.169,-3.09,99.43,0
5.189,-3.21,99.43,0
5.209,-3.34,99.43,0
5.229,-3.46,99.43,0
5.249,-5.17,99.43,0
5.269,-6.76,99.43,0
5.289,-7.49,99.43,0
5.29,-9.08,99.43,0
5.31,-10.06,99.43,0
5.33,-10.3,99.43,0
5.35,-10.42,99.43,0
5.37,-10.54,99.43,0
5.39,-10.54,99.43,0
5.41,-10.67,99.43,0
5.43,-10.54,99.43,0
5.45,-10.67,99.43,0
5.47,-10.67,99.43,0
5.49,-10.67,99.43,0
5.51,-10.67,99.43,0
5.53,-10.54,99.43,0
5.55,-10.67,99.43,0
5.57,-10.67,99.43,0
5.59,-10.67,99.43,0
5.61,-10.54,99.43,0
5.63,-10.67,99.43,1
5.65,-10.67,99.43,1
5.67,-10.67,99.43,1
5.69,-10.67,99.43,1
5.71,-10.67,99.43,1
5.73,-10.67,99.43,1
5.75,-10.67,99.43,1
5.77,-10.67,99.43,1
5.79,-10.67,99.43,1
5.81,-10.67,99.43,1
5.83,-10.67,99.43,1
5.85,-10.54,99.43,1
5.87,-9.69,99.43,1
5.89,-8.83,99.43,1
5.91,-7.86,99.43,1
5.93,-6.51,99.43,1
5.95,-5.54,99.43,1
5.97,-4.68,99.43,1
5.99,-4.44,99.43,1
6.01,-4.31,99.43,1
6.03,-4.44,99.43,1
6.05,-3.95,99.43,1
6.07,-3.46,99.43,1
6.09,-3.46,99.43,1
6.091,-3.58,99.43,0
6.111,-3.82,99.43,0
6.131,-3.58,99.43,0
6.151,-3.34,99.43,0
6.171,-3.46,99.55,0
6.191,-3.46,99.43,0
6.211,-3.7,99.43,0
6.231,-3.46,99.43,0
6.251,-3.21,99.43,0
6.271,-3.34,99.43,0
6.291,-3.46,99.43,0
6.311,-3.7,99.43,0
6.331,-3.46,99.43,0
6.351,-3.21,99.43,0
6.371,-3.21,99.43,0
6.391,-3.34,99.43,0
6.411,-3.46,99.43,0
6.431,-3.21,99.43,0
6.451,-3.21,99.43,0
6.471,-3.46,99.43,0
6.491,-3.82,99.43,0
6.491,-5.78,99.43,0
6.511,-7.0,99.43,0
6.531,-7.98,99.55,0
6.551,-9.45,99.43,0
6.571,-10.06,99.43,0
6.591,-10.3,99.43,0
6.611,-10.54,99.43,0
6.631,-10.54,99.43,0
6.651,-10.54,99.43,0
6.671,-10.54,99.43,0
6.691,-10.54,99.43,0
6.711,-10.67,99.55,0
6.731,-10.67,99.43,0
6.751,-10.67,99.43,0
6.771,-10.54,99.43,0
6.791,-10.67,99.43,0
6.811,-10.67,99.43,0
6.831,-10.67,99.43,0
6.851,-10.67,99.43,0
6.871,-10.54,99.43,0
6.892,-10.67,99.43,1
6.912,-10.67,99.43,1
6.932,-10.67,99.43,1
6.952,-10.54,99.43,1
6.972,-10.67,99.43,1
6.992,-10.67,99.43,1
7.012,-10.67,99.43,1
7.032,-10.67,99.43,1
7.052,-10.54,99.43,1
7.072,-10.67,99.43,1
7.092,-10.67,99.43,1
7.112,-10.42,99.43,1
7.132,-9.45,99.43,1
7.152,-8.47,99.43,1
7.172,-7.37,99.43,1
7.192,-6.27,99.55,1
7.212,-5.29,99.43,1
7.232,-4.56,99.43,1
7.252,-4.31,99.43,1
7.272,-4.31,99.43,1
7.292,-4.31,99.43,1
7.292,-3.95,99.43,1
7.312,-3.46,99.43,1
7.332,-3.46,99.43,1
7.352,-3.58,99.43,0
7.372,-3.82,99.43,0
7.392,-3.58,99.43,0
7.412,-3.21,99.43,0
7.432,-3.34,99.43,0
7.452,-3.46,99.43,0
7.472,-3.7,99.43,0
7.492,-3.34,99.43,0
7.512,-3.21,99.43,0
7.532,-3.34,99.43,0
7.552,-3.58,99.43,0
7.572,-3.82,99.43,0
7.592,-3.46,99.43,0
7.612,-3.09,99.43,0
7.632,-3.34,99.55,0
7.652,-3.34,99.43,0
7.672,-3.46,99.55,0
7.693,-3.21,99.43,0
7.713,-3.21,99.43,0
7.733,-3.34,99.43,0
7.753,-4.44,99.43,0
7.773,-6.02,99.43,0
7.793,-7.0,99.43,0
7.813,-7.49,99.43,0
7.833,-7.61,99.43,0
7.853,-8.35,99.43,0
7.873,-9.69,99.43,0
7.893,-10.06,99.43,0
7.913,-10.42,99.43,0
7.933,-10.54,99.43,0
7.953,-10.54,99.43,0
7.973,-10.54,99.43,0
7.993,-10.42,99.43,0
8.013,-10.67,99.43,0
8.033,-10.67,99.43,0
8.053,-10.67,99.43,0
8.073,-10.67,99.43,0
8.093,-10.54,99.43,0
8.113,-10.67,99.43,0
8.133,-10.67,99.43,0
8.153,-10.67,99.43,0
8.173,-10.54,99.43,1
8.193,-10.54,99.43,1
8.213,-10.67,99.43,1
8.233,-10.67,99.43,1
8.253,-10.67,99.43,1
8.273,-10.67,99.43,1
8.293,-10.67,99.43,1
8.313,-10.67,99.43,1
8.333,-10.67,99.43,1
8.353,-10.67,99.43,1
8.373,-10.67,99.43,1
8.393,-10.18,99.43,1
8.413,-9.2,99.43,1
8.433,-8.35,99.55,1
8.453,-6.88,99.43,1
8.473,-5.66,99.43,1
8.494,-5.05,99.55,1
8.514,-4.68,99.43,1
8.534,-4.56,99.43,1
8.554,-3.82,99.43,1
8.574,-3.7,99.43,1
8.594,-3.7,99.43,1
8.614,-3.95,99.43,1
8.634,-3.82,99.43,1
8.654,-3.34,99.43,0
8.674,-3.34,99.43,0
8.694,-3.58,99.43,0
8.714,-3.7,99.43,0
8.734,-3.58,99.43,0
8.754,-3.21,99.43,0
8.774,-3.21,99.43,0
8.794,-3.46,99.43,0
8.814,-3.7,99.43,0
8.834,-3.82,99.43,0
8.854,-3.09,99.43,0
8.874,-3.21,99.43,0
8.894,-3.34,99.43,0
8.894,-3.46,99.43,0
8.914,-3.46,99.43,0
8.934,-3.09,99.43,0
8.954,-3.34,99.43,0
8.974,-3.46,99.43,0
8.994,-3.34,99.43,0
9.014,-3.58,99.43,0
9.034,-4.92,99.43,0
9.054,-6.63,99.43,0
9.074,-7.37,99.43,0
9.094,-8.59,99.43,0
9.114,-9.69,99.43,0
9.134,-10.3,99.43,0
9.154,-10.42,99.43,0
9.174,-10.42,99.43,0
9.194,-10.67,99.43,0
9.214,-10.67,99.43,0
9.234,-10.67,99.43,0
9.254,-10.54,99.43,0
9.274,-10.54,99.43,0
9.295,-10.67,99.43,0
9.315,-10.67,99.43,0
9.335,-10.67,99.43,0
9.355,-10.54,99.43,0
9.375,-10.67,99.43,0
9.395,-10.67,99.43,0
9.415,-10.67,99.43,0
9.435,-10.67,99.43,0
9.455,-10.54,99.43,1
9.475,-10.67,99.43,1
9.495,-10.67,99.43,1
9.515,-10.67,99.43,1
9.535,-10.67,99.43,1
9.555,-10.67,99.43,1
9.575,-10.67,99.43,1
9.595,-10.67,99.43,1
9.615,-10.67,99.43,1
9.635,-10.67,99.43,1
9.655,-10.54,99.43,1
9.675,-9.69,99.43,1
9.695,-8.71,99.43,1
9.715,-7.49,99.43,1
9.735,-6.02,99.43,1
9.755,-5.17,99.43,1
9.775,-4.8,99.55,1
9.795,-4.68,99.43,1
9.815,-4.07,99.43,1
9.835,-3.7,99.43,1
9.855,-3.7,99.43,1
9.875,-3.82,99.43,1
9.895,-3.82,99.43,1
9.915,-3.34,99.43,1
9.935,-3.46,99.43,0
9.955,-3.58,99.43,0
9.975,-3.7,99.43,0
9.995,-3.58,99.43,0
10.015,-3.21,99.43,0
10.035,-3.34,99.55,0
10.055,-3.46,99.43,0
10.075,-3.82,99.43,0
10.096,-3.58,99.43,0
10.116,-3.21,99.43,0
10.136,-3.21,99.43,0
10.156,-3.34,99.43,0
10.176,-3.46,99.43,0
10.196,-3.09,99.43,0
10.216,-3.34,99.43,0
10.236,-3.34,99.55,0
10.256,-3.46,99.55,0
10.276,-3.7,99.43,0
10.296,-5.05,99.43,0
10.316,-6.76,99.43,0
10.336,-7.61,99.43,0
10.356,-9.08,99.43,0
10.376,-10.06,99.43,0
10.396,-10.3,99.43,0
10.416,-10.42,99.43,0
10.436,-10.54,99.43,0
10.456,-10.67,99.43,0
10.476,-10.67,99.43,0
10.496,-10.67,99.43,0
10.496,-10.54,99.43,0
10.516,-10.67,99.43,0
10.536,-10.67,99.43,0
10.556,-10.67,99.43,0
10.576,-10.67,99.43,0
10.596,-10.67,99.43,0
10.616,-10.67,99.43,0
10.636,-10.67,99.43,0
10.656,-10.67,99.43,1
10.676,-10.67,99.43,1
10.696,-10.67,99.43,1
10.716,-10.67,99.43,1
10.736,-10.67,99.43,1
10.756,-10.54,99.43,1
10.776,-10.67,99.43,1
10.796,-10.67,99.43,1
10.816,-10.67,99.43,1
10.836,-10.67,99.43,1
10.856,-10.67,99.43,1
10.876,-10.3,99.43,1
10.897,-9.32,99.43,1
10.917,-8.35,99.43,1
10.937,-7.0,99.43,1
10.957,-5.66,99.43,1
10.977,-5.05,99.43,1
10.997,-4.68,99.43,1
11.017,-4.44,99.43,1
11.037,-3.95,99.43,1
11.057,-3.58,99.43,1
11.077,-3.7,99.43,1
11.097,-3.82,99.43,1
11.117,-3.82,99.43,1
11.137,-3.34,99.43,1
11.157,-3.34,99.43,0
11.177,-3.46,99.43,0
11.197,-3.58,99.43,0
11.217,-3.58,99.43,0
11.237,-3.21,99.43,0
11.257,-3.34,99.43,0
11.277,-3.46,99.43,0
11.298,-3.7,99.43,0
11.318,-3.58,99.43,0
11.338,-3.21,99.43,0
11.358,-3.21,99.43,0
11.378,-3.34,99.55,0
11.398,-3.46,99.43,0
11.418,-3.21,99.43,0
11.438,-3.34,99.43,0
11.458,-3.46,99.43,0
11.478,-3.46,99.43,0
11.498,-3.82,99.43,0
11.518,-5.54,99.43,0
11.538,-7.0,99.43,0
11.558,-7.61,99.43,0
11.578,-9.08,99.43,0
11.598,-10.06,99.43,0
11.618,-10.3,99.43,0
11.638,-10.42,99.43,0
11.658,-10.54,99.43,0
11.678,-10.54,99.43,0
11.698,-10.54,99.43,0
11.718,-10.54,99.43,0
11.738,-10.54,99.43,0
11.758,-10.67,99.43,0
11.778,-10.67,99.43,0
11.798,-10.67,99.43,0
11.818,-10.67,99.43,0
11.838,-10.67,99.43,0
11.858,-10.67,99.43,0
11.878,-10.67,99.43,1
11.898,-10.67,99.43,1
11.918,-10.67,99.43,1
11.938,-10.67,99.43,1
11.958,-10.67,99.43,1
11.978,-10.67,99.43,1
11.998,-10.67,99.43,1
12.018,-10.67,99.43,1
12.038,-10.79,99.43,1
12.058,-10.67,99.55,1
12.078,-10.67,99.43,1
12.099,-10.67,99.43,1
12.119,-9.93,99.43,1
12.139,-8.96,99.55,1
12.159,-8.1,99.43,1
12.179,-6.39,99.43,1
12.199,-5.41,99.43,1
12.219,-4.92,99.43,1
12.239,-4.56,99.43,1
12.259,-4.44,99.43,1
12.279,-3.7,99.43,1
12.299,-3.7,99.43,1
12.319,-3.7,99.43,1
12.339,-3.82,99.43,1
12.359,-3.7,99.43,1
12.379,-3.34,99.43,1
12.399,-3.46,99.43,0
12.419,-3.34,99.43,0
12.439,-3.7,99.43,0
12.459,-3.34,99.43,0
12.479,-3.21,99.43,0
12.499,-3.46,99.43,0
12.519,-3.46,99.43,0
12.539,-3.82,99.43,0
12.559,-3.09,99.43,0
12.579,-3.21,99.43,0
12.599,-3.46,99.43,0
12.619,-3.46,99.43,0
12.639,-3.46,99.43,0
12.659,-3.09,99.43,0
12.679,-3.34,99.43,0
12.699,-3.46,99.43,0
12.719,-3.7,99.43,0
12.739,-4.31,99.43,0
12.759,-6.27,99.43,0
12.779,-7.37,99.43,0
12.799,-8.47,99.43,0
12.819,-9.81,99.43,0
12.839,-10.3,99.43,0
12.859,-10.42,99.43,0
12.879,-10.42,99.43,0
12.899,-10.67,99.43,0
12.919,-10.67,99.43,0
12.939,-10.67,99.43,0
12.959,-10.54,99.43,0
12.979,-10.67,99.43,0
12.999,-10.67,99.43,0
13.019,-10.67,99.43,0
13.039,-10.67,99.43,0
13.059,-10.67,99.43,0
13.079,-10.67,99.43,0
13.099,-10.67,99.43,0
13.119,-10.67,99.43,1
13.139,-10.67,99.43,1
13.159,-10.67,99.43,1
13.179,-10.67,99.43,1
13.199,-10.67,99.43,1
13.219,-10.54,99.43,1
13.239,-10.67,99.43,1
13.259,-10.67,99.43,1
13.279,-10.67,99.43,1
13.299,-10.67,99.43,1
13.3,-10.67,99.43,1
13.32,-10.67,99.43,1
13.34,-9.81,99.43,1
13.36,-8.83,99.43,1
13.38,-7.86,99.43,1
13.4,-6.27,99.43,1
13.42,-5.17,99.43,1
13.44,-4.8,99.55,1
13.46,-4.44,99.43,1
13.48,-4.44,99.43,1
13.5,-3.7,99.43,1
13.52,-3.58,99.43,1
13.54,-3.7,99.43,1
13.56,-3.82,99.43,1
13.58,-3.82,99.43,1
13.6,-3.21,99.43,1
13.62,-3.34,99.43,0
13.64,-3.46,99.43,0
13.66,-3.7,99.43,0
13.68,-3.46,99.43,0
13.701,-3.21,99.43,0
13.721,-3.46,99.43,0
13.741,-3.46,99.43,0
13.761,-3.7,99.43,0
13.781,-3.46,99.43,0
13.801,-3.21,99.43,0
13.821,-3.34,99.43,0
13.841,-3.34,99.43,0
13.861,-3.58,99.43,0
13.881,-3.09,99.43,0
13.901,-3.34,99.43,0
13.921,-3.46,99.43,0
13.941,-3.46,99.43,0
13.961,-5.05,99.43,0
13.981,-6.76,99.43,0
14.001,-7.61,99.43,0
14.021,-9.08,99.43,0
14.041,-10.06,99.43,0
14.061,-10.3,99.43,0
14.081,-10.42,99.43,0
14.101,-10.67,99.43,0
14.121,-10.67,99.43,0
14.141,-10.54,99.43,0
14.161,-10.54,99.43,0
14.181,-10.67,99.43,0
14.201,-10.67,99.43,0
14.221,-10.67,99.43,0
14.241,-10.67,99.43,0
14.261,-10.67,99.43,0
14.281,-10.67,99.43,0
14.301,-10.67,99.43,0
14.321,-10.67,99.43,1
14.341,-10.54,99.43,1
14.361,-10.67,99.43,1
14.381,-10.67,99.43,1
14.401,-10.67,99.43,1
14.421,-10.67,99.43,1
14.441,-10.67,99.43,1
14.461,-10.67,99.43,1
14.481,-10.67,99.43,1
14.502,-10.67,99.43,1
14.522,-10.67,99.43,1
14.542,-10.67,99.43,1
14.562,-10.42,99.43,1
14.582,-9.32,99.43,1
14.602,-8.47,99.43,1
14.622,-7.12,99.43,1
14.642,-5.66,99.43,1
14.662,-4.92,99.43,1
14.682,-4.56,99.43,1
14.702,-4.44,99.43,1
14.722,-4.19,99.43,1
14.742,-3.7,99.43,1
14.762,-3.58,99.55,1
14.782,-3.58,99.43,1
14.802,-3.82,99.43,1
14.822,-3.7,99.43,1
14.842,-3.34,99.43,0
14.862,-3.34,99.43,0
14.882,-3.46,99.43,0
14.902,-3.7,99.43,0
14.922,-3.46,99.43,0
14.942,-3.34,99.43,0
14.962,-3.46,99.43,0
14.982,-3.46,99.55,0
15.002,-3.7,99.43,0
15.022,-3.34,99.55,0
15.042,-3.09,99.43,0
15.062,-3.34,99.43,0
15.082,-3.46,99.43,0
15.102,-3.46,99.43,0
15.122,-3.09,99.43,0
15.142,-3.34,99.43,0
15.162,-3.46,99.43,0
15.182,-3.7,99.43,0
15.202,-5.78,99.43,0
15.222,-7.12,99.43,0
15.242,-8.1,99.43,0
15.262,-9.57,99.43,0
15.282,-10.18,99.43,0
15.302,-10.3,99.43,0
15.322,-10.54,99.43,0
15.342,-10.67,99.43,0
15.362,-10.67,99.43,0
15.382,-10.54,99.43,0
15.402,-10.54,99.43,0
15.422,-10.67,99.43,0
15.442,-10.67,99.43,0
15.462,-10.67,99.43,0
15.482,-10.54,99.55,0
15.502,-10.67,99.43,0
15.522,-10.79,99.43,0
15.542,-10.67,99.43,0
15.562,-10.67,99.43,1
15.582,-10.67,99.43,1
15.602,-10.67,99.43,1
15.622,-10.67,99.43,1
15.642,-10.67,99.43,1
15.662,-10.54,99.43,1
15.682,-10.67,99.43,1
15.702,-10.67,99.43,1
15.703,-10.67,99.43,1
15.723,-10.67,99.43,1
15.743,-10.54,99.43,1
15.763,-10.67,99.43,1
15.783,-10.06,99.43,1
15.803,-8.96,99.43,1
15.823,-7.98,99.55,1
15.843,-6.51,99.43,1
15.863,-5.41,99.43,1
15.883,-4.68,99.43,1
15.903,-4.44,99.43,1
15.923,-4.19,99.43,1
15.943,-4.19,99.43,1
15.963,-3.58,99.43,1
15.983,-3.58,99.43,1
16.003,-3.58,99.43,1
16.023,-3.82,99.43,1
16.043,-3.7,99.43,1
16.063,-3.21,99.43,1
16.083,-3.34,99.43,0
16.103,-3.46,99.43,0
16.123,-3.58,99.43,0
16.143,-3.34,99.43,0
16.163,-3.21,99.55,0
16.183,-3.58,99.43,0
16.203,-3.58,99.43,0
16.223,-3.7,99.43,0
16.243,-3.21,99.43,0
16.263,-3.09,99.43,0
16.283,-3.34,99.43,0
16.303,-3.34,99.43,0
16.323,-3.46,99.43,0
16.343,-3.21,99.43,0
16.363,-3.34,99.43,0
16.383,-3.46,99.43,0
16.403,-4.31,99.55,0
16.423,-6.27,99.43,0
16.443,-7.25,99.43,0
16.463,-8.22,99.43,0
16.483,-9.69,99.43,0
16.503,-10.18,99.43,0
16.504,-10.3,99.43,0
16.524,-10.54,99.55,0
16.544,-10.54,99.43,0
16.564,-10.67,99.43,0
16.584,-10.54,99.43,0
16.604,-10.54,99.43,0
16.624,-10.67,99.43,0
16.644,-10.67,99.43,0
16.664,-10.67,99.43,0
16.684,-10.54,99.55,0
16.704,-10.67,99.43,0
16.724,-10.79,99.43,0
16.744,-10.67,99.43,1
16.764,-10.67,99.43,1
16.784,-10.67,99.43,1
16.804,-10.67,99.43,1
16.824,-10.67,99.43,1
16.844,-10.67,99.43,1
16.864,-10.54,99.43,1
16.884,-10.67,99.43,1
16.904,-10.67,99.43,1
16.924,-10.67,99.43,1
16.944,-10.67,99.43,1
16.964,-10.67,99.43,1
16.984,-10.54,99.43,1
17.004,-9.69,99.43,1
17.024,-8.71,99.43,1
17.044,-7.86,99.43,1
17.064,-6.51,99.43,1
17.084,-5.29,99.43,1
17.104,-4.68,99.43,1
17.124,-4.44,99.43,1
17.144,-4.31,99.43,1
17.164,-4.07,99.43,1
17.184,-3.58,99.43,1
17.204,-3.58,99.43,1
17.224,-3.58,99.43,1
17.244,-3.82,99.43,1
17.264,-3.7,99.43,1
17.284,-3.34,99.43,0
17.305,-3.46,99.43,0
17.325,-3.34,99.55,0
17.345,-3.7,99.43,0
17.365,-3.34,99.43,0
17.385,-3.34,99.55,0
17.405,-3.58,99.43,0
17.425,-3.58,99.43,0
17.445,-3.7,99.43,0
17.465,-3.09,99.43,0
17.485,-3.21,99.43,0
17.505,-3.46,99.55,0
17.525,-3.46,99.43,0
17.545,-3.34,99.43,0
17.565,-3.09,99.43,0
17.585,-3.21,99.43,0
17.605,-3.46,99.43,0
17.625,-5.05,99.43,0
17.645,-6.76,99.43,0
17.665,-7.49,99.43,0
17.685,-8.96,99.43,0
17.705,-10.06,99.43,0
17.725,-10.18,99.43,0
17.745,-10.54,99.43,0
17.765,-10.54,99.43,0
17.785,-10.54,99.43,0
17.805,-10.54,99.43,0
17.825,-10.54,99.43,0
17.845,-10.67,99.43,0
17.865,-10.67,99.43,0
17.885,-10.67,99.43,0
17.905,-10.67,99.43,0
17.925,-10.67,99.43,0
17.945,-10.67,99.43,0
17.965,-10.67,99.43,0
17.985,-10.67,99.43,1
18.005,-10.67,99.43,1
18.025,-10.67,99.55,1
18.045,-10.67,99.43,1
18.065,-10.67,99.43,1
18.085,-10.54,99.43,1
18.105,-10.67,99.43,1
18.106,-10.67,99.43,1
18.126,-10.67,99.43,1
18.146,-10.67,99.43,1
18.166,-10.67,99.43,1
18.186,-10.67,99.43,1
18.206,-10.3,99.43,1
18.226,-9.45,99.43,1
18.246,-8.59,99.43,1
18.266,-7.73,99.43,1
18.286,-6.27,99.43,1
18.306,-5.54,99.43,1
18.326,-4.68,99.43,1
18.346,-4.31,99.55,1
18.366,-4.19,99.43,1
18.386,-4.19,99.43,1
18.406,-3.7,99.43,1
18.426,-3.58,99.43,1
18.446,-3.58,99.43,1
18.466,-3.7,99.43,1
18.486,-3.7,99.43,1
18.506,-3.21,99.43,0
18.506,-3.34,99.43,0
18.526,-3.34,99.43,0
18.546,-3.58,99.43,0
18.566,-3.58,99.43,0
18.586,-3.21,99.43,0
18.606,-3.34,99.43,0
18.626,-3.46,99.43,0
18.646,-3.58,99.43,0
18.666,-3.46,99.43,0
18.686,-3.21,99.43,0
18.706,-3.34,99.43,0
18.726,-3.34,99.43,0
18.746,-3.58,99.43,0
18.766,-3.09,99.43,0
18.786,-3.21,99.43,0
18.806,-3.58,99.43,0
18.826,-5.66,99.43,0
18.846,-7.0,99.43,0
18.866,-7.86,99.43,0
18.886,-9.57,99.43,0
18.906,-9.93,99.43,0
18.907,-10.3,99.43,0
18.927,-10.54,99.43,0
18.947,-10.54,99.43,0
18.967,-10.54,99.43,0
18.987,-10.54,99.43,0
19.007,-10.67,99.43,0
19.027,-10.67,99.43,0
19.047,-10.67,99.43,0
19.067,-10.54,99.43,0
19.087,-10.67,99.43,0
19.107,-10.67,99.43,0
19.127,-10.67,99.43,0
19.147,-10.67,99.43,1
19.167,-10.67,99.43,1
19.187,-10.67,99.43,1
19.207,-10.67,99.43,1
19.227,-10.67,99.43,1
19.247,-10.54,99.43,1
19.267,-10.67,99.43,1
19.287,-10.67,99.55,1
19.307,-10.67,99.43,1
19.307,-10.67,99.43,1
19.327,-10.67,99.43,1
19.347,-10.67,99.43,1
19.367,-10.67,99.43,1
19.387,-10.06,99.43,1
19.407,-9.08,99.43,1
19.427,-8.22,99.43,1
19.447,-6.88,99.43,1
19.467,-5.78,99.43,1
19.487,-5.17,99.43,1
19.507,-4.31,99.43,1
19.527,-4.19,99.43,1
19.547,-3.95,99.43,1
19.567,-4.19,99.43,1
19.587,-3.7,99.43,1
19.607,-3.46,99.43,1
19.627,-3.58,99.55,1
19.647,-3.58,99.43,1
19.667,-3.7,99.43,0
19.687,-3.34,99.55,0
19.708,-3.21,99.43,0
19.728,-3.46,99.43,0
19.748,-3.46,99.43,0
19.768,-3.58,99.43,0
19.788,-3.21,99.43,0
19.808,-3.34,99.55,0
19.828,-3.46,99.43,0
19.848,-3.58,99.43,0
19.868,-3.58,99.43,0
19.888,-3.21,99.43,0
19.908,-3.34,99.43,0
19.928,-3.34,99.43,0
19.948,-3.46,99.43,0
19.968,-3.21,99.43,0
19.988,-3.21,99.43,0
20.008,-4.19,99.43,0
20.028,-6.15,99.43,0
20.048,-7.25,99.43,0
20.068,-8.22,99.43,0
20.088,-9.69,99.43,0
20.108,-10.18,99.43,0
20.128,-10.42,99.55,0
20.148,-10.54,99.43,0
20.168,-10.54,99.43,0
20.188,-10.54,99.55,0
20.208,-10.67,99.43,0
20.228,-10.79,99.43,0
20.248,-10.67,99.43,0
20.268,-10.67,99.43,0
20.288,-10.67,99.43,0
20.308,-10.67,99.43,0
20.328,-10.79,99.43,0
20.348,-10.67,99.43,0
20.368,-10.67,99.43,1
20.388,-10.67,99.43,1
20.408,-10.67,99.43,1
20.428,-10.67,99.43,1
20.448,-10.54,99.55,1
20.468,-10.67,99.43,1
20.488,-10.67,99.43,1
20.508,-10.67,99.43,1
20.509,-10.67,99.43,1
20.529,-10.67,99.43,1
20.549,-10.67,99.43,1
20.569,-10.67,99.43,1
20.589,-10.54,99.43,1
20.609,-9.69,99.43,1
20.629,-8.71,99.43,1
20.649,-7.61,99.43,1
20.669,-6.27,99.43,1
20.689,-5.54,99.55,1
20.709,-4.68,99.43,1
20.729,-4.07,99.43,1
20.749,-3.95,99.43,1
20.769,-3.95,99.43,1
20.789,-3.95,99.43,1
20.809,-3.58,99.55,1
20.829,-3.46,99.43,1
20.849,-3.58,99.43,1
20.869,-3.58,99.43,1
20.889,-3.58,99.43,0
20.909,-3.21,99.43,0
20.929,-3.34,99.43,0
20.949,-3.34,99.43,0
20.969,-3.7,99.43,0
20.989,-3.46,99.43,0
21.009,-3.21,99.43,0
21.029,-3.46,99.43,0
21.049,-3.46,99.43,0
21.069,-3.58,99.55,0
21.089,-3.34,99.43,0
21.109,-3.21,99.43,0
21.129,-3.34,99.43,0
21.149,-3.34,99.43,0
21.169,-3.46,99.43,0
21.189,-3.09,99.43,0
21.209,-3.34,99.43,0
21.229,-4.92,99.43,0
21.249,-6.63,99.43,0
21.269,-7.49,99.43,0
21.289,-8.71,99.43,0
21.309,-9.81,99.43,0
21.31,-10.3,99.43,0
21.33,-10.54,99.43,0
21.35,-10.54,99.43,0
21.37,-10.42,99.43,0
21.39,-10.54,99.43,0
21.41,-10.67,99.43,0
21.43,-10.67,99.43,0
21.45,-10.67,99.43,0
21.47,-10.54,99.43,0
21.49,-10.67,99.43,0
21.51,-10.79,99.43,0
21.53,-10.67,99.43,0
21.55,-10.67,99.43,0
21.57,-10.67,99.43,1
21.59,-10.67,99.43,1
21.61,-10.67,99.43,1
21.63,-10.67,99.43,1
21.65,-10.67,99.43,1
21.67,-10.67,99.43,1
21.69,-10.67,99.43,1
21.71,-10.67,99.43,1
21.71,-10.67,99.43,1
21.73,-10.67,99.43,1
21.75,-10.67,99.43,1
21.77,-10.67,99.43,1
21.79,-10.42,99.43,1
21.81,-9.45,99.43,1
21.83,-8.59,99.43,1
21.85,-7.49,99.43,1
21.87,-6.02,99.43,1
21.89,-5.41,99.43,1
21.91,-4.68,99.43,1
21.93,-4.07,99.43,1
21.95,-4.07,99.43,1
21.97,-3.95,99.55,1
21.99,-3.95,99.43,1
22.01,-3.58,99.43,1
22.03,-3.34,99.43,1
22.05,-3.58,99.43,1
22.07,-3.58,99.43,1
22.09,-3.7,99.43,0
22.11,-3.21,99.43,0
22.13,-3.21,99.43,0
22.15,-3.46,99.43,0
22.17,-3.7,99.43,0
22.19,-3.58,99.43,0
22.21,-3.21,99.43,0
22.23,-3.46,99.43,0
22.25,-3.46,99.43,0
22.27,-3.58,99.43,0
22.29,-3.46,99.43,0
22.31,-3.21,99.43,0
22.33,-3.46,99.43,0
22.35,-3.34,99.43,0
22.37,-3.34,99.43,0
22.39,-3.21,99.43,0
22.41,-3.46,99.43,0
22.43,-5.41,99.55,0
22.45,-7.0,99.55,0
22.47,-7.61,99.43,0
22.49,-9.32,99.43,0
22.511,-10.06,99.43,0
22.531,-10.42,99.43,0
22.551,-10.54,99.43,0
22.571,-10.54,99.43,0
22.591,-10.54,99.43,0
22.611,-10.67,99.43,0
22.631,-10.67,99.43,0
22.651,-10.67,99.43,0
22.671,-10.67,99.43,0
22.691,-10.67,99.43,0
22.711,-10.67,99.43,0
22.731,-10.67,99.55,0
22.751,-10.67,99.43,0
22.771,-10.67,99.43,1
22.791,-10.67,99.43,1
22.811,-10.67,99.43,1
22.831,-10.67,99.43,1
22.851,-10.54,99.43,1
22.871,-10.67,99.43,1
22.891,-10.67,99.43,1
22.911,-10.67,99.43,1
22.931,-10.67,99.43,1
22.951,-10.67,99.43,1
22.971,-10.67,99.43,1
22.991,-10.67,99.43,1
23.011,-10.67,99.43,1
23.031,-10.06,99.43,1
23.051,-9.08,99.43,1
23.071,-8.22,99.43,1
23.091,-6.88,99.43,1
23.111,-5.66,99.43,1
23.131,-4.92,99.43,1
23.151,-4.44,99.43,1
23.171,-4.07,99.43,1
23.191,-4.07,99.43,1
23.211,-3.82,99.43,1
23.231,-3.82,99.43,1
23.251,-3.46,99.43,1
23.271,-3.46,99.43,1
23.291,-3.58,99.43,1
23.311,-3.58,99.43,1
23.331,-3.58,99.43,0
23.351,-3.21,99.43,0
23.371,-3.46,99.43,0
23.391,-3.46,99.43,0
23.411,-3.58,99.43,0
23.431,-3.46,99.43,0
23.451,-3.21,99.43,0
23.471,-3.46,99.43,0
23.491,-3.46,99.43,0
23.511,-3.58,99.43,0
23.531,-3.34,99.43,0
23.551,-3.21,99.43,0
23.571,-3.34,99.43,0
23.591,-3.34,99.43,0
23.611,-3.46,99.43,0
23.631,-3.34,99.43,0
23.651,-4.07,99.43,0
23.671,-6.02,99.43,0
23.691,-7.25,99.43,0
23.711,-8.22,99.43,0
23.712,-9.57,99.43,0
23.732,-10.18,99.43,0
23.752,-10.42,99.43,0
23.772,-10.54,99.55,0
23.792,-10.42,99.43,0
23.812,-10.54,99.43,0
23.832,-10.67,99.43,0
23.852,-10.67,99.43,0
23.872,-10.67,99.43,0
23.892,-10.54,99.43,0
23.912,-10.67,99.43,0
23.932,-10.67,99.43,0
23.952,-10.67,99.43,0
23.972,-10.67,99.43,1
23.992,-10.67,99.43,1
24.012,-10.67,99.43,1
24.032,-10.67,99.43,1
24.052,-10.67,99.43,1
24.072,-10.54,99.43,1
24.092,-10.67,99.43,1
24.113,-10.67,99.43,1
24.133,-10.67,99.43,1
24.153,-10.67,99.43,1
24.173,-10.67,99.43,1
24.193,-10.67,99.43,1
24.213,-10.67,99.43,1
24.233,-10.54,99.43,1
24.253,-9.81,99.43,1
24.273,-8.83,99.43,1
24.293,-7.86,99.43,1
24.313,-6.51,99.43,1
24.333,-5.41,99.43,1
24.353,-4.8,99.43,1
24.373,-4.31,99.43,1
24.393,-4.07,99.43,1
24.413,-4.07,99.43,1
24.433,-3.95,99.43,1
24.453,-3.82,99.43,1
24.473,-3.46,99.43,1
24.493,-3.58,99.43,1
24.513,-3.58,99.43,1
24.533,-3.7,99.43,1
24.553,-3.58,99.43,0
24.573,-3.34,99.43,0
24.593,-3.34,99.43,0
24.613,-3.46,99.43,0
24.633,-3.58,99.43,0
24.653,-3.34,99.43,0
24.673,-3.21,99.43,0
24.693,-3.46,99.43,0
24.713,-3.58,99.43,0
24.733,-3.46,99.43,0
24.753,-3.21,99.43,0
24.773,-3.21,99.43,0
24.793,-3.34,99.43,0
24.813,-3.34,99.43,0
24.833,-3.21,99.43,0
24.853,-3.34,99.43,0
24.873,-4.8,99.43,0
24.893,-6.51,99.43,0
24.913,-7.37,99.43,0
24.933,-8.71,99.43,0
24.953,-9.81,99.55,0
24.973,-10.3,99.43,0
24.993,-10.42,99.43,0
25.013,-10.54,99.43,0
25.033,-10.42,99.43,0
25.053,-10.54,99.43,0
25.073,-10.67,99.43,0
25.093,-10.67,99.43,0
25.113,-10.67,99.43,0
25.133,-10.67,99.43,0
25.153,-10.67,99.43,0
25.173,-10.67,99.43,0
25.193,-10.67,99.43,0
25.213,-10.67,99.43,1
25.233,-10.67,99.43,1
25.253,-10.67,99.43,1
25.273,-10.67,99.43,1
25.293,-10.67,99.43,1
